#  E (eV)   dos(E)     Int dos(E) EFermi =    6.171 eV
  -9.000  0.1227E-82  0.1227E-84
  -8.990  0.1226E-82  0.2453E-84
  -8.980  0.1225E-82  0.3678E-84
  -8.970  0.1225E-82  0.4903E-84
  -8.960  0.1224E-82  0.6127E-84
  -8.950  0.1223E-82  0.7350E-84
  -8.940  0.1223E-82  0.8573E-84
  -8.930  0.1222E-82  0.9795E-84
  -8.920  0.1221E-82  0.1102E-83
  -8.910  0.1221E-82  0.1224E-83
  -8.900  0.1220E-82  0.1346E-83
  -8.890  0.1219E-82  0.1468E-83
  -8.880  0.1219E-82  0.1590E-83
  -8.870  0.1218E-82  0.1711E-83
  -8.860  0.1217E-82  0.1833E-83
  -8.850  0.1217E-82  0.1955E-83
  -8.840  0.1216E-82  0.2076E-83
  -8.830  0.1215E-82  0.2198E-83
  -8.820  0.1215E-82  0.2319E-83
  -8.810  0.1214E-82  0.2441E-83
  -8.800  0.1213E-82  0.2562E-83
  -8.790  0.1213E-82  0.2683E-83
  -8.780  0.1212E-82  0.2805E-83
  -8.770  0.1211E-82  0.2926E-83
  -8.760  0.1211E-82  0.3047E-83
  -8.750  0.1210E-82  0.3168E-83
  -8.740  0.1209E-82  0.3289E-83
  -8.730  0.1209E-82  0.3410E-83
  -8.720  0.1208E-82  0.3531E-83
  -8.710  0.1207E-82  0.3651E-83
  -8.700  0.1207E-82  0.3772E-83
  -8.690  0.1206E-82  0.3893E-83
  -8.680  0.1205E-82  0.4013E-83
  -8.670  0.1205E-82  0.4134E-83
  -8.660  0.1204E-82  0.4254E-83
  -8.650  0.1204E-82  0.4374E-83
  -8.640  0.1203E-82  0.4495E-83
  -8.630  0.1202E-82  0.4615E-83
  -8.620  0.1202E-82  0.4735E-83
  -8.610  0.1201E-82  0.4855E-83
  -8.600  0.1200E-82  0.4975E-83
  -8.590  0.1200E-82  0.5095E-83
  -8.580  0.1199E-82  0.5215E-83
  -8.570  0.1198E-82  0.5335E-83
  -8.560  0.1198E-82  0.5455E-83
  -8.550  0.1197E-82  0.5574E-83
  -8.540  0.1196E-82  0.5694E-83
  -8.530  0.1196E-82  0.5813E-83
  -8.520  0.1195E-82  0.5933E-83
  -8.510  0.1197E-82  0.6053E-83
  -8.500  0.1206E-82  0.6173E-83
  -8.490  0.1245E-82  0.6298E-83
  -8.480  0.1403E-82  0.6438E-83
  -8.470  0.2038E-82  0.6642E-83
  -8.460  0.4569E-82  0.7099E-83
  -8.450  0.1459E-81  0.8558E-83
  -8.440  0.5405E-81  0.1396E-82
  -8.430  0.2087E-80  0.3483E-82
  -8.420  0.8117E-80  0.1160E-81
  -8.410  0.3151E-79  0.4311E-81
  -8.400  0.1218E-78  0.1649E-80
  -8.390  0.4687E-78  0.6336E-80
  -8.380  0.1794E-77  0.2428E-79
  -8.370  0.6835E-77  0.9263E-79
  -8.360  0.2591E-76  0.3517E-78
  -8.350  0.9770E-76  0.1329E-77
  -8.340  0.3666E-75  0.4995E-77
  -8.330  0.1369E-74  0.1868E-76
  -8.320  0.5085E-74  0.6954E-76
  -8.310  0.1880E-73  0.2575E-75
  -8.300  0.6914E-73  0.9490E-75
  -8.290  0.2530E-72  0.3479E-74
  -8.280  0.9214E-72  0.1269E-73
  -8.270  0.3339E-71  0.4608E-73
  -8.260  0.1204E-70  0.1664E-72
  -8.250  0.4318E-70  0.5982E-72
  -8.240  0.1541E-69  0.2139E-71
  -8.230  0.5473E-69  0.7612E-71
  -8.220  0.1934E-68  0.2695E-70
  -8.210  0.6800E-68  0.9495E-70
  -8.200  0.2379E-67  0.3328E-69
  -8.190  0.8281E-67  0.1161E-68
  -8.180  0.2868E-66  0.4029E-68
  -8.170  0.9885E-66  0.1391E-67
  -8.160  0.3390E-65  0.4781E-67
  -8.150  0.1157E-64  0.1635E-66
  -8.140  0.3926E-64  0.5561E-66
  -8.130  0.1326E-63  0.1882E-65
  -8.120  0.4458E-63  0.6340E-65
  -8.110  0.1491E-62  0.2125E-64
  -8.100  0.4961E-62  0.7086E-64
  -8.090  0.1643E-61  0.2351E-63
  -8.080  0.5411E-61  0.7762E-63
  -8.070  0.1774E-60  0.2550E-62
  -8.060  0.5785E-60  0.8336E-62
  -8.050  0.1878E-59  0.2711E-61
  -8.040  0.6063E-59  0.8774E-61
  -8.030  0.1948E-58  0.2825E-60
  -8.020  0.6228E-58  0.9053E-60
  -8.010  0.1981E-57  0.2886E-59
  -8.000  0.6270E-57  0.9156E-59
  -7.990  0.1975E-56  0.2890E-58
  -7.980  0.6187E-56  0.9077E-58
  -7.970  0.1929E-55  0.2837E-57
  -7.960  0.5985E-55  0.8821E-57
  -7.950  0.1847E-54  0.2729E-56
  -7.940  0.5674E-54  0.8403E-56
  -7.930  0.1734E-53  0.2574E-55
  -7.920  0.5272E-53  0.7847E-55
  -7.910  0.1595E-52  0.2380E-54
  -7.900  0.4802E-52  0.7182E-54
  -7.890  0.1438E-51  0.2157E-53
  -7.880  0.4287E-51  0.6444E-53
  -7.870  0.1271E-50  0.1916E-52
  -7.860  0.3752E-50  0.5668E-52
  -7.850  0.1101E-49  0.1668E-51
  -7.840  0.3218E-49  0.4886E-51
  -7.830  0.9353E-49  0.1424E-50
  -7.820  0.2705E-48  0.4129E-50
  -7.810  0.7785E-48  0.1191E-49
  -7.800  0.2229E-47  0.3420E-49
  -7.790  0.6351E-47  0.9771E-49
  -7.780  0.1800E-46  0.2777E-48
  -7.770  0.5078E-46  0.7856E-48
  -7.760  0.1425E-45  0.2211E-47
  -7.750  0.3980E-45  0.6191E-47
  -7.740  0.1106E-44  0.1725E-46
  -7.730  0.3057E-44  0.4782E-46
  -7.720  0.8411E-44  0.1319E-45
  -7.710  0.2302E-43  0.3621E-45
  -7.700  0.6270E-43  0.9891E-45
  -7.690  0.1699E-42  0.2688E-44
  -7.680  0.4581E-42  0.7269E-44
  -7.670  0.1229E-41  0.1956E-43
  -7.660  0.3281E-41  0.5237E-43
  -7.650  0.8714E-41  0.1395E-42
  -7.640  0.2303E-40  0.3698E-42
  -7.630  0.6056E-40  0.9754E-42
  -7.620  0.1584E-39  0.2560E-41
  -7.610  0.4125E-39  0.6685E-41
  -7.600  0.1069E-38  0.1737E-40
  -7.590  0.2754E-38  0.4491E-40
  -7.580  0.7063E-38  0.1155E-39
  -7.570  0.1802E-37  0.2958E-39
  -7.560  0.4576E-37  0.7533E-39
  -7.550  0.1156E-36  0.1909E-38
  -7.540  0.2906E-36  0.4815E-38
  -7.530  0.7267E-36  0.1208E-37
  -7.520  0.1809E-35  0.3017E-37
  -7.510  0.4478E-35  0.7495E-37
  -7.500  0.1103E-34  0.1853E-36
  -7.490  0.2705E-34  0.4558E-36
  -7.480  0.6597E-34  0.1116E-35
  -7.470  0.1601E-33  0.2717E-35
  -7.460  0.3867E-33  0.6583E-35
  -7.450  0.9291E-33  0.1587E-34
  -7.440  0.2221E-32  0.3809E-34
  -7.430  0.5284E-32  0.9093E-34
  -7.420  0.1251E-31  0.2160E-33
  -7.410  0.2945E-31  0.5105E-33
  -7.400  0.6902E-31  0.1201E-32
  -7.390  0.1609E-30  0.2810E-32
  -7.380  0.3734E-30  0.6544E-32
  -7.370  0.8618E-30  0.1516E-31
  -7.360  0.1979E-29  0.3496E-31
  -7.350  0.4524E-29  0.8019E-31
  -7.340  0.1029E-28  0.1831E-30
  -7.330  0.2327E-28  0.4158E-30
  -7.320  0.5239E-28  0.9397E-30
  -7.310  0.1174E-27  0.2113E-29
  -7.300  0.2616E-27  0.4729E-29
  -7.290  0.5801E-27  0.1053E-28
  -7.280  0.1280E-26  0.2333E-28
  -7.270  0.2810E-26  0.5143E-28
  -7.260  0.6139E-26  0.1128E-27
  -7.250  0.1334E-25  0.2462E-27
  -7.240  0.2886E-25  0.5348E-27
  -7.230  0.6210E-25  0.1156E-26
  -7.220  0.1330E-24  0.2485E-26
  -7.210  0.2832E-24  0.5318E-26
  -7.200  0.6004E-24  0.1132E-25
  -7.190  0.1266E-23  0.2399E-25
  -7.180  0.2658E-23  0.5056E-25
  -7.170  0.5549E-23  0.1061E-24
  -7.160  0.1153E-22  0.2214E-24
  -7.150  0.2384E-22  0.4597E-24
  -7.140  0.4903E-22  0.9500E-24
  -7.130  0.1003E-21  0.1953E-23
  -7.120  0.2043E-21  0.3997E-23
  -7.110  0.4140E-21  0.8137E-23
  -7.100  0.8347E-21  0.1648E-22
  -7.090  0.1674E-20  0.3323E-22
  -7.080  0.3342E-20  0.6665E-22
  -7.070  0.6637E-20  0.1330E-21
  -7.060  0.1312E-19  0.2642E-21
  -7.050  0.2579E-19  0.5220E-21
  -7.040  0.5045E-19  0.1026E-20
  -7.030  0.9819E-19  0.2008E-20
  -7.020  0.1902E-18  0.3910E-20
  -7.010  0.3665E-18  0.7575E-20
  -7.000  0.7027E-18  0.1460E-19
  -6.990  0.1341E-17  0.2801E-19
  -6.980  0.2545E-17  0.5346E-19
  -6.970  0.4807E-17  0.1015E-18
  -6.960  0.9033E-17  0.1919E-18
  -6.950  0.1689E-16  0.3608E-18
  -6.940  0.3143E-16  0.6750E-18
  -6.930  0.5818E-16  0.1257E-17
  -6.920  0.1072E-15  0.2328E-17
  -6.910  0.1964E-15  0.4293E-17
  -6.900  0.3582E-15  0.7874E-17
  -6.890  0.6499E-15  0.1437E-16
  -6.880  0.1173E-14  0.2610E-16
  -6.870  0.2107E-14  0.4718E-16
  -6.860  0.3767E-14  0.8485E-16
  -6.850  0.6699E-14  0.1518E-15
  -6.840  0.1185E-13  0.2704E-15
  -6.830  0.2087E-13  0.4790E-15
  -6.820  0.3656E-13  0.8446E-15
  -6.810  0.6372E-13  0.1482E-14
  -6.800  0.1105E-12  0.2587E-14
  -6.790  0.1907E-12  0.4493E-14
  -6.780  0.3274E-12  0.7767E-14
  -6.770  0.5593E-12  0.1336E-13
  -6.760  0.9506E-12  0.2287E-13
  -6.750  0.1608E-11  0.3894E-13
  -6.740  0.2705E-11  0.6600E-13
  -6.730  0.4530E-11  0.1113E-12
  -6.720  0.7546E-11  0.1868E-12
  -6.710  0.1251E-10  0.3118E-12
  -6.700  0.2063E-10  0.5181E-12
  -6.690  0.3385E-10  0.8567E-12
  -6.680  0.5528E-10  0.1409E-11
  -6.670  0.8980E-10  0.2307E-11
  -6.660  0.1452E-09  0.3759E-11
  -6.650  0.2335E-09  0.6094E-11
  -6.640  0.3736E-09  0.9830E-11
  -6.630  0.5949E-09  0.1578E-10
  -6.620  0.9425E-09  0.2520E-10
  -6.610  0.1486E-08  0.4006E-10
  -6.600  0.2330E-08  0.6336E-10
  -6.590  0.3636E-08  0.9972E-10
  -6.580  0.5646E-08  0.1562E-09
  -6.570  0.8722E-08  0.2434E-09
  -6.560  0.1341E-07  0.3775E-09
  -6.550  0.2051E-07  0.5825E-09
  -6.540  0.3120E-07  0.8946E-09
  -6.530  0.4725E-07  0.1367E-08
  -6.520  0.7118E-07  0.2079E-08
  -6.510  0.1067E-06  0.3146E-08
  -6.500  0.1591E-06  0.4737E-08
  -6.490  0.2361E-06  0.7098E-08
  -6.480  0.3486E-06  0.1058E-07
  -6.470  0.5122E-06  0.1571E-07
  -6.460  0.7486E-06  0.2319E-07
  -6.450  0.1089E-05  0.3408E-07
  -6.440  0.1575E-05  0.4983E-07
  -6.430  0.2268E-05  0.7251E-07
  -6.420  0.3249E-05  0.1050E-06
  -6.410  0.4631E-05  0.1513E-06
  -6.400  0.6567E-05  0.2170E-06
  -6.390  0.9266E-05  0.3097E-06
  -6.380  0.1301E-04  0.4397E-06
  -6.370  0.1817E-04  0.6215E-06
  -6.360  0.2525E-04  0.8740E-06
  -6.350  0.3492E-04  0.1223E-05
  -6.340  0.4805E-04  0.1704E-05
  -6.330  0.6577E-04  0.2361E-05
  -6.320  0.8959E-04  0.3257E-05
  -6.310  0.1214E-03  0.4471E-05
  -6.300  0.1637E-03  0.6108E-05
  -6.290  0.2196E-03  0.8304E-05
  -6.280  0.2931E-03  0.1124E-04
  -6.270  0.3893E-03  0.1513E-04
  -6.260  0.5144E-03  0.2027E-04
  -6.250  0.6763E-03  0.2704E-04
  -6.240  0.8846E-03  0.3588E-04
  -6.230  0.1151E-02  0.4740E-04
  -6.220  0.1491E-02  0.6230E-04
  -6.210  0.1921E-02  0.8151E-04
  -6.200  0.2462E-02  0.1061E-03
  -6.190  0.3141E-02  0.1375E-03
  -6.180  0.3985E-02  0.1774E-03
  -6.170  0.5032E-02  0.2277E-03
  -6.160  0.6321E-02  0.2909E-03
  -6.150  0.7901E-02  0.3699E-03
  -6.140  0.9825E-02  0.4682E-03
  -6.130  0.1216E-01  0.5898E-03
  -6.120  0.1497E-01  0.7394E-03
  -6.110  0.1833E-01  0.9227E-03
  -6.100  0.2234E-01  0.1146E-02
  -6.090  0.2709E-01  0.1417E-02
  -6.080  0.3268E-01  0.1744E-02
  -6.070  0.3922E-01  0.2136E-02
  -6.060  0.4684E-01  0.2604E-02
  -6.050  0.5566E-01  0.3161E-02
  -6.040  0.6581E-01  0.3819E-02
  -6.030  0.7741E-01  0.4593E-02
  -6.020  0.9060E-01  0.5499E-02
  -6.010  0.1055E+00  0.6554E-02
  -6.000  0.1223E+00  0.7777E-02
  -5.990  0.1409E+00  0.9186E-02
  -5.980  0.1617E+00  0.1080E-01
  -5.970  0.1845E+00  0.1265E-01
  -5.960  0.2095E+00  0.1474E-01
  -5.950  0.2368E+00  0.1711E-01
  -5.940  0.2662E+00  0.1977E-01
  -5.930  0.2978E+00  0.2275E-01
  -5.920  0.3316E+00  0.2607E-01
  -5.910  0.3673E+00  0.2974E-01
  -5.900  0.4048E+00  0.3379E-01
  -5.890  0.4441E+00  0.3823E-01
  -5.880  0.4847E+00  0.4308E-01
  -5.870  0.5265E+00  0.4834E-01
  -5.860  0.5692E+00  0.5403E-01
  -5.850  0.6124E+00  0.6016E-01
  -5.840  0.6557E+00  0.6672E-01
  -5.830  0.6988E+00  0.7370E-01
  -5.820  0.7413E+00  0.8112E-01
  -5.810  0.7827E+00  0.8894E-01
  -5.800  0.8228E+00  0.9717E-01
  -5.790  0.8610E+00  0.1058E+00
  -5.780  0.8971E+00  0.1148E+00
  -5.770  0.9306E+00  0.1241E+00
  -5.760  0.9614E+00  0.1337E+00
  -5.750  0.9892E+00  0.1436E+00
  -5.740  0.1014E+01  0.1537E+00
  -5.730  0.1035E+01  0.1641E+00
  -5.720  0.1053E+01  0.1746E+00
  -5.710  0.1067E+01  0.1853E+00
  -5.700  0.1078E+01  0.1960E+00
  -5.690  0.1086E+01  0.2069E+00
  -5.680  0.1091E+01  0.2178E+00
  -5.670  0.1092E+01  0.2287E+00
  -5.660  0.1091E+01  0.2396E+00
  -5.650  0.1088E+01  0.2505E+00
  -5.640  0.1083E+01  0.2613E+00
  -5.630  0.1075E+01  0.2721E+00
  -5.620  0.1067E+01  0.2828E+00
  -5.610  0.1057E+01  0.2933E+00
  -5.600  0.1046E+01  0.3038E+00
  -5.590  0.1035E+01  0.3141E+00
  -5.580  0.1023E+01  0.3244E+00
  -5.570  0.1011E+01  0.3345E+00
  -5.560  0.9985E+00  0.3444E+00
  -5.550  0.9863E+00  0.3543E+00
  -5.540  0.9742E+00  0.3641E+00
  -5.530  0.9622E+00  0.3737E+00
  -5.520  0.9503E+00  0.3832E+00
  -5.510  0.9384E+00  0.3926E+00
  -5.500  0.9264E+00  0.4018E+00
  -5.490  0.9143E+00  0.4110E+00
  -5.480  0.9020E+00  0.4200E+00
  -5.470  0.8892E+00  0.4289E+00
  -5.460  0.8760E+00  0.4376E+00
  -5.450  0.8622E+00  0.4463E+00
  -5.440  0.8476E+00  0.4547E+00
  -5.430  0.8324E+00  0.4631E+00
  -5.420  0.8163E+00  0.4712E+00
  -5.410  0.7994E+00  0.4792E+00
  -5.400  0.7817E+00  0.4870E+00
  -5.390  0.7632E+00  0.4947E+00
  -5.380  0.7440E+00  0.5021E+00
  -5.370  0.7242E+00  0.5094E+00
  -5.360  0.7040E+00  0.5164E+00
  -5.350  0.6835E+00  0.5232E+00
  -5.340  0.6628E+00  0.5299E+00
  -5.330  0.6421E+00  0.5363E+00
  -5.320  0.6217E+00  0.5425E+00
  -5.310  0.6016E+00  0.5485E+00
  -5.300  0.5821E+00  0.5543E+00
  -5.290  0.5634E+00  0.5600E+00
  -5.280  0.5456E+00  0.5654E+00
  -5.270  0.5288E+00  0.5707E+00
  -5.260  0.5131E+00  0.5758E+00
  -5.250  0.4987E+00  0.5808E+00
  -5.240  0.4856E+00  0.5857E+00
  -5.230  0.4738E+00  0.5904E+00
  -5.220  0.4633E+00  0.5951E+00
  -5.210  0.4542E+00  0.5996E+00
  -5.200  0.4463E+00  0.6041E+00
  -5.190  0.4396E+00  0.6085E+00
  -5.180  0.4340E+00  0.6128E+00
  -5.170  0.4294E+00  0.6171E+00
  -5.160  0.4256E+00  0.6213E+00
  -5.150  0.4227E+00  0.6256E+00
  -5.140  0.4203E+00  0.6298E+00
  -5.130  0.4184E+00  0.6340E+00
  -5.120  0.4168E+00  0.6381E+00
  -5.110  0.4155E+00  0.6423E+00
  -5.100  0.4142E+00  0.6464E+00
  -5.090  0.4130E+00  0.6506E+00
  -5.080  0.4117E+00  0.6547E+00
  -5.070  0.4101E+00  0.6588E+00
  -5.060  0.4084E+00  0.6629E+00
  -5.050  0.4064E+00  0.6669E+00
  -5.040  0.4042E+00  0.6710E+00
  -5.030  0.4016E+00  0.6750E+00
  -5.020  0.3988E+00  0.6790E+00
  -5.010  0.3957E+00  0.6829E+00
  -5.000  0.3925E+00  0.6868E+00
  -4.990  0.3891E+00  0.6907E+00
  -4.980  0.3857E+00  0.6946E+00
  -4.970  0.3822E+00  0.6984E+00
  -4.960  0.3788E+00  0.7022E+00
  -4.950  0.3755E+00  0.7060E+00
  -4.940  0.3724E+00  0.7097E+00
  -4.930  0.3695E+00  0.7134E+00
  -4.920  0.3670E+00  0.7170E+00
  -4.910  0.3648E+00  0.7207E+00
  -4.900  0.3630E+00  0.7243E+00
  -4.890  0.3616E+00  0.7279E+00
  -4.880  0.3606E+00  0.7315E+00
  -4.870  0.3600E+00  0.7351E+00
  -4.860  0.3598E+00  0.7387E+00
  -4.850  0.3599E+00  0.7423E+00
  -4.840  0.3604E+00  0.7459E+00
  -4.830  0.3611E+00  0.7496E+00
  -4.820  0.3621E+00  0.7532E+00
  -4.810  0.3632E+00  0.7568E+00
  -4.800  0.3643E+00  0.7605E+00
  -4.790  0.3655E+00  0.7641E+00
  -4.780  0.3666E+00  0.7678E+00
  -4.770  0.3675E+00  0.7715E+00
  -4.760  0.3682E+00  0.7751E+00
  -4.750  0.3687E+00  0.7788E+00
  -4.740  0.3688E+00  0.7825E+00
  -4.730  0.3685E+00  0.7862E+00
  -4.720  0.3678E+00  0.7899E+00
  -4.710  0.3667E+00  0.7935E+00
  -4.700  0.3652E+00  0.7972E+00
  -4.690  0.3632E+00  0.8008E+00
  -4.680  0.3607E+00  0.8044E+00
  -4.670  0.3579E+00  0.8080E+00
  -4.660  0.3547E+00  0.8116E+00
  -4.650  0.3512E+00  0.8151E+00
  -4.640  0.3475E+00  0.8185E+00
  -4.630  0.3435E+00  0.8220E+00
  -4.620  0.3394E+00  0.8254E+00
  -4.610  0.3353E+00  0.8287E+00
  -4.600  0.3312E+00  0.8320E+00
  -4.590  0.3272E+00  0.8353E+00
  -4.580  0.3233E+00  0.8385E+00
  -4.570  0.3197E+00  0.8417E+00
  -4.560  0.3163E+00  0.8449E+00
  -4.550  0.3133E+00  0.8480E+00
  -4.540  0.3107E+00  0.8511E+00
  -4.530  0.3086E+00  0.8542E+00
  -4.520  0.3069E+00  0.8573E+00
  -4.510  0.3057E+00  0.8604E+00
  -4.500  0.3051E+00  0.8634E+00
  -4.490  0.3049E+00  0.8665E+00
  -4.480  0.3053E+00  0.8695E+00
  -4.470  0.3062E+00  0.8726E+00
  -4.460  0.3075E+00  0.8756E+00
  -4.450  0.3092E+00  0.8787E+00
  -4.440  0.3113E+00  0.8818E+00
  -4.430  0.3137E+00  0.8850E+00
  -4.420  0.3164E+00  0.8881E+00
  -4.410  0.3192E+00  0.8913E+00
  -4.400  0.3222E+00  0.8946E+00
  -4.390  0.3251E+00  0.8978E+00
  -4.380  0.3281E+00  0.9011E+00
  -4.370  0.3309E+00  0.9044E+00
  -4.360  0.3334E+00  0.9077E+00
  -4.350  0.3358E+00  0.9111E+00
  -4.340  0.3377E+00  0.9145E+00
  -4.330  0.3393E+00  0.9179E+00
  -4.320  0.3405E+00  0.9213E+00
  -4.310  0.3411E+00  0.9247E+00
  -4.300  0.3412E+00  0.9281E+00
  -4.290  0.3409E+00  0.9315E+00
  -4.280  0.3399E+00  0.9349E+00
  -4.270  0.3385E+00  0.9383E+00
  -4.260  0.3365E+00  0.9417E+00
  -4.250  0.3341E+00  0.9450E+00
  -4.240  0.3312E+00  0.9483E+00
  -4.230  0.3280E+00  0.9516E+00
  -4.220  0.3244E+00  0.9548E+00
  -4.210  0.3206E+00  0.9580E+00
  -4.200  0.3166E+00  0.9612E+00
  -4.190  0.3125E+00  0.9643E+00
  -4.180  0.3084E+00  0.9674E+00
  -4.170  0.3043E+00  0.9705E+00
  -4.160  0.3003E+00  0.9735E+00
  -4.150  0.2966E+00  0.9764E+00
  -4.140  0.2932E+00  0.9794E+00
  -4.130  0.2902E+00  0.9823E+00
  -4.120  0.2876E+00  0.9851E+00
  -4.110  0.2856E+00  0.9880E+00
  -4.100  0.2842E+00  0.9908E+00
  -4.090  0.2834E+00  0.9937E+00
  -4.080  0.2834E+00  0.9965E+00
  -4.070  0.2841E+00  0.9993E+00
  -4.060  0.2856E+00  0.1002E+01
  -4.050  0.2880E+00  0.1005E+01
  -4.040  0.2912E+00  0.1008E+01
  -4.030  0.2953E+00  0.1011E+01
  -4.020  0.3003E+00  0.1014E+01
  -4.010  0.3061E+00  0.1017E+01
  -4.000  0.3128E+00  0.1020E+01
  -3.990  0.3203E+00  0.1023E+01
  -3.980  0.3286E+00  0.1027E+01
  -3.970  0.3377E+00  0.1030E+01
  -3.960  0.3474E+00  0.1033E+01
  -3.950  0.3578E+00  0.1037E+01
  -3.940  0.3687E+00  0.1041E+01
  -3.930  0.3801E+00  0.1045E+01
  -3.920  0.3920E+00  0.1048E+01
  -3.910  0.4042E+00  0.1053E+01
  -3.900  0.4167E+00  0.1057E+01
  -3.890  0.4294E+00  0.1061E+01
  -3.880  0.4423E+00  0.1065E+01
  -3.870  0.4552E+00  0.1070E+01
  -3.860  0.4681E+00  0.1075E+01
  -3.850  0.4811E+00  0.1079E+01
  -3.840  0.4939E+00  0.1084E+01
  -3.830  0.5066E+00  0.1089E+01
  -3.820  0.5192E+00  0.1095E+01
  -3.810  0.5317E+00  0.1100E+01
  -3.800  0.5441E+00  0.1105E+01
  -3.790  0.5563E+00  0.1111E+01
  -3.780  0.5684E+00  0.1117E+01
  -3.770  0.5804E+00  0.1122E+01
  -3.760  0.5925E+00  0.1128E+01
  -3.750  0.6046E+00  0.1134E+01
  -3.740  0.6168E+00  0.1141E+01
  -3.730  0.6293E+00  0.1147E+01
  -3.720  0.6421E+00  0.1153E+01
  -3.710  0.6553E+00  0.1160E+01
  -3.700  0.6690E+00  0.1167E+01
  -3.690  0.6834E+00  0.1173E+01
  -3.680  0.6985E+00  0.1180E+01
  -3.670  0.7145E+00  0.1187E+01
  -3.660  0.7314E+00  0.1195E+01
  -3.650  0.7495E+00  0.1202E+01
  -3.640  0.7686E+00  0.1210E+01
  -3.630  0.7889E+00  0.1218E+01
  -3.620  0.8104E+00  0.1226E+01
  -3.610  0.8332E+00  0.1234E+01
  -3.600  0.8571E+00  0.1243E+01
  -3.590  0.8822E+00  0.1252E+01
  -3.580  0.9083E+00  0.1261E+01
  -3.570  0.9353E+00  0.1270E+01
  -3.560  0.9631E+00  0.1280E+01
  -3.550  0.9914E+00  0.1290E+01
  -3.540  0.1020E+01  0.1300E+01
  -3.530  0.1049E+01  0.1310E+01
  -3.520  0.1077E+01  0.1321E+01
  -3.510  0.1105E+01  0.1332E+01
  -3.500  0.1132E+01  0.1344E+01
  -3.490  0.1158E+01  0.1355E+01
  -3.480  0.1182E+01  0.1367E+01
  -3.470  0.1204E+01  0.1379E+01
  -3.460  0.1224E+01  0.1391E+01
  -3.450  0.1241E+01  0.1404E+01
  -3.440  0.1255E+01  0.1416E+01
  -3.430  0.1266E+01  0.1429E+01
  -3.420  0.1274E+01  0.1442E+01
  -3.410  0.1278E+01  0.1454E+01
  -3.400  0.1279E+01  0.1467E+01
  -3.390  0.1276E+01  0.1480E+01
  -3.380  0.1269E+01  0.1493E+01
  -3.370  0.1258E+01  0.1505E+01
  -3.360  0.1244E+01  0.1518E+01
  -3.350  0.1226E+01  0.1530E+01
  -3.340  0.1205E+01  0.1542E+01
  -3.330  0.1181E+01  0.1554E+01
  -3.320  0.1154E+01  0.1565E+01
  -3.310  0.1124E+01  0.1576E+01
  -3.300  0.1093E+01  0.1587E+01
  -3.290  0.1059E+01  0.1598E+01
  -3.280  0.1024E+01  0.1608E+01
  -3.270  0.9872E+00  0.1618E+01
  -3.260  0.9497E+00  0.1628E+01
  -3.250  0.9116E+00  0.1637E+01
  -3.240  0.8733E+00  0.1645E+01
  -3.230  0.8348E+00  0.1654E+01
  -3.220  0.7967E+00  0.1662E+01
  -3.210  0.7589E+00  0.1669E+01
  -3.200  0.7219E+00  0.1677E+01
  -3.190  0.6857E+00  0.1683E+01
  -3.180  0.6506E+00  0.1690E+01
  -3.170  0.6167E+00  0.1696E+01
  -3.160  0.5840E+00  0.1702E+01
  -3.150  0.5527E+00  0.1707E+01
  -3.140  0.5229E+00  0.1713E+01
  -3.130  0.4945E+00  0.1718E+01
  -3.120  0.4678E+00  0.1722E+01
  -3.110  0.4426E+00  0.1727E+01
  -3.100  0.4190E+00  0.1731E+01
  -3.090  0.3971E+00  0.1735E+01
  -3.080  0.3767E+00  0.1739E+01
  -3.070  0.3580E+00  0.1742E+01
  -3.060  0.3409E+00  0.1746E+01
  -3.050  0.3253E+00  0.1749E+01
  -3.040  0.3114E+00  0.1752E+01
  -3.030  0.2989E+00  0.1755E+01
  -3.020  0.2879E+00  0.1758E+01
  -3.010  0.2784E+00  0.1761E+01
  -3.000  0.2702E+00  0.1763E+01
  -2.990  0.2633E+00  0.1766E+01
  -2.980  0.2577E+00  0.1769E+01
  -2.970  0.2532E+00  0.1771E+01
  -2.960  0.2497E+00  0.1774E+01
  -2.950  0.2472E+00  0.1776E+01
  -2.940  0.2456E+00  0.1779E+01
  -2.930  0.2447E+00  0.1781E+01
  -2.920  0.2444E+00  0.1783E+01
  -2.910  0.2446E+00  0.1786E+01
  -2.900  0.2452E+00  0.1788E+01
  -2.890  0.2461E+00  0.1791E+01
  -2.880  0.2472E+00  0.1793E+01
  -2.870  0.2483E+00  0.1796E+01
  -2.860  0.2494E+00  0.1798E+01
  -2.850  0.2505E+00  0.1801E+01
  -2.840  0.2514E+00  0.1803E+01
  -2.830  0.2522E+00  0.1806E+01
  -2.820  0.2527E+00  0.1808E+01
  -2.810  0.2530E+00  0.1811E+01
  -2.800  0.2531E+00  0.1813E+01
  -2.790  0.2530E+00  0.1816E+01
  -2.780  0.2528E+00  0.1818E+01
  -2.770  0.2524E+00  0.1821E+01
  -2.760  0.2520E+00  0.1823E+01
  -2.750  0.2515E+00  0.1826E+01
  -2.740  0.2511E+00  0.1829E+01
  -2.730  0.2508E+00  0.1831E+01
  -2.720  0.2507E+00  0.1834E+01
  -2.710  0.2509E+00  0.1836E+01
  -2.700  0.2513E+00  0.1839E+01
  -2.690  0.2520E+00  0.1841E+01
  -2.680  0.2531E+00  0.1844E+01
  -2.670  0.2545E+00  0.1846E+01
  -2.660  0.2563E+00  0.1849E+01
  -2.650  0.2585E+00  0.1851E+01
  -2.640  0.2610E+00  0.1854E+01
  -2.630  0.2638E+00  0.1857E+01
  -2.620  0.2668E+00  0.1859E+01
  -2.610  0.2701E+00  0.1862E+01
  -2.600  0.2735E+00  0.1865E+01
  -2.590  0.2769E+00  0.1867E+01
  -2.580  0.2803E+00  0.1870E+01
  -2.570  0.2836E+00  0.1873E+01
  -2.560  0.2867E+00  0.1876E+01
  -2.550  0.2896E+00  0.1879E+01
  -2.540  0.2921E+00  0.1882E+01
  -2.530  0.2941E+00  0.1885E+01
  -2.520  0.2957E+00  0.1888E+01
  -2.510  0.2967E+00  0.1891E+01
  -2.500  0.2971E+00  0.1894E+01
  -2.490  0.2968E+00  0.1897E+01
  -2.480  0.2958E+00  0.1899E+01
  -2.470  0.2940E+00  0.1902E+01
  -2.460  0.2914E+00  0.1905E+01
  -2.450  0.2880E+00  0.1908E+01
  -2.440  0.2839E+00  0.1911E+01
  -2.430  0.2790E+00  0.1914E+01
  -2.420  0.2733E+00  0.1917E+01
  -2.410  0.2669E+00  0.1919E+01
  -2.400  0.2598E+00  0.1922E+01
  -2.390  0.2522E+00  0.1924E+01
  -2.380  0.2440E+00  0.1927E+01
  -2.370  0.2354E+00  0.1929E+01
  -2.360  0.2264E+00  0.1931E+01
  -2.350  0.2173E+00  0.1934E+01
  -2.340  0.2080E+00  0.1936E+01
  -2.330  0.1987E+00  0.1938E+01
  -2.320  0.1896E+00  0.1940E+01
  -2.310  0.1807E+00  0.1941E+01
  -2.300  0.1721E+00  0.1943E+01
  -2.290  0.1641E+00  0.1945E+01
  -2.280  0.1567E+00  0.1946E+01
  -2.270  0.1499E+00  0.1948E+01
  -2.260  0.1439E+00  0.1949E+01
  -2.250  0.1388E+00  0.1951E+01
  -2.240  0.1346E+00  0.1952E+01
  -2.230  0.1312E+00  0.1953E+01
  -2.220  0.1289E+00  0.1955E+01
  -2.210  0.1274E+00  0.1956E+01
  -2.200  0.1269E+00  0.1957E+01
  -2.190  0.1272E+00  0.1958E+01
  -2.180  0.1282E+00  0.1960E+01
  -2.170  0.1300E+00  0.1961E+01
  -2.160  0.1324E+00  0.1962E+01
  -2.150  0.1352E+00  0.1964E+01
  -2.140  0.1384E+00  0.1965E+01
  -2.130  0.1418E+00  0.1966E+01
  -2.120  0.1453E+00  0.1968E+01
  -2.110  0.1488E+00  0.1969E+01
  -2.100  0.1521E+00  0.1971E+01
  -2.090  0.1551E+00  0.1972E+01
  -2.080  0.1576E+00  0.1974E+01
  -2.070  0.1597E+00  0.1976E+01
  -2.060  0.1611E+00  0.1977E+01
  -2.050  0.1618E+00  0.1979E+01
  -2.040  0.1618E+00  0.1980E+01
  -2.030  0.1609E+00  0.1982E+01
  -2.020  0.1593E+00  0.1984E+01
  -2.010  0.1568E+00  0.1985E+01
  -2.000  0.1535E+00  0.1987E+01
  -1.990  0.1494E+00  0.1988E+01
  -1.980  0.1446E+00  0.1990E+01
  -1.970  0.1390E+00  0.1991E+01
  -1.960  0.1328E+00  0.1992E+01
  -1.950  0.1260E+00  0.1994E+01
  -1.940  0.1188E+00  0.1995E+01
  -1.930  0.1111E+00  0.1996E+01
  -1.920  0.1031E+00  0.1997E+01
  -1.910  0.9495E-01  0.1998E+01
  -1.900  0.8662E-01  0.1999E+01
  -1.890  0.7824E-01  0.2000E+01
  -1.880  0.6990E-01  0.2000E+01
  -1.870  0.6169E-01  0.2001E+01
  -1.860  0.5367E-01  0.2001E+01
  -1.850  0.4591E-01  0.2002E+01
  -1.840  0.3849E-01  0.2002E+01
  -1.830  0.3144E-01  0.2003E+01
  -1.820  0.2481E-01  0.2003E+01
  -1.810  0.1864E-01  0.2003E+01
  -1.800  0.1297E-01  0.2003E+01
  -1.790  0.7796E-02  0.2003E+01
  -1.780  0.3145E-02  0.2003E+01
  -1.770 -0.9836E-03  0.2003E+01
  -1.760 -0.4593E-02  0.2003E+01
  -1.750 -0.7694E-02  0.2003E+01
  -1.740 -0.1030E-01  0.2003E+01
  -1.730 -0.1244E-01  0.2003E+01
  -1.720 -0.1414E-01  0.2003E+01
  -1.710 -0.1542E-01  0.2003E+01
  -1.700 -0.1632E-01  0.2002E+01
  -1.690 -0.1688E-01  0.2002E+01
  -1.680 -0.1713E-01  0.2002E+01
  -1.670 -0.1711E-01  0.2002E+01
  -1.660 -0.1686E-01  0.2002E+01
  -1.650 -0.1641E-01  0.2002E+01
  -1.640 -0.1579E-01  0.2001E+01
  -1.630 -0.1505E-01  0.2001E+01
  -1.620 -0.1421E-01  0.2001E+01
  -1.610 -0.1330E-01  0.2001E+01
  -1.600 -0.1235E-01  0.2001E+01
  -1.590 -0.1137E-01  0.2001E+01
  -1.580 -0.1039E-01  0.2001E+01
  -1.570 -0.9428E-02  0.2001E+01
  -1.560 -0.8492E-02  0.2001E+01
  -1.550 -0.7594E-02  0.2000E+01
  -1.540 -0.6742E-02  0.2000E+01
  -1.530 -0.5941E-02  0.2000E+01
  -1.520 -0.5195E-02  0.2000E+01
  -1.510 -0.4504E-02  0.2000E+01
  -1.500 -0.3868E-02  0.2000E+01
  -1.490 -0.3285E-02  0.2000E+01
  -1.480 -0.2750E-02  0.2000E+01
  -1.470 -0.2259E-02  0.2000E+01
  -1.460 -0.1806E-02  0.2000E+01
  -1.450 -0.1382E-02  0.2000E+01
  -1.440 -0.9813E-03  0.2000E+01
  -1.430 -0.5934E-03  0.2000E+01
  -1.420 -0.2088E-03  0.2000E+01
  -1.410  0.1832E-03  0.2000E+01
  -1.400  0.5941E-03  0.2000E+01
  -1.390  0.1037E-02  0.2000E+01
  -1.380  0.1524E-02  0.2000E+01
  -1.370  0.2072E-02  0.2000E+01
  -1.360  0.2697E-02  0.2000E+01
  -1.350  0.3414E-02  0.2000E+01
  -1.340  0.4245E-02  0.2000E+01
  -1.330  0.5208E-02  0.2000E+01
  -1.320  0.6326E-02  0.2000E+01
  -1.310  0.7623E-02  0.2000E+01
  -1.300  0.9124E-02  0.2001E+01
  -1.290  0.1086E-01  0.2001E+01
  -1.280  0.1285E-01  0.2001E+01
  -1.270  0.1513E-01  0.2001E+01
  -1.260  0.1773E-01  0.2001E+01
  -1.250  0.2069E-01  0.2001E+01
  -1.240  0.2404E-01  0.2002E+01
  -1.230  0.2781E-01  0.2002E+01
  -1.220  0.3205E-01  0.2002E+01
  -1.210  0.3678E-01  0.2002E+01
  -1.200  0.4207E-01  0.2003E+01
  -1.190  0.4793E-01  0.2003E+01
  -1.180  0.5442E-01  0.2004E+01
  -1.170  0.6159E-01  0.2005E+01
  -1.160  0.6947E-01  0.2005E+01
  -1.150  0.7812E-01  0.2006E+01
  -1.140  0.8760E-01  0.2007E+01
  -1.130  0.9796E-01  0.2008E+01
  -1.120  0.1093E+00  0.2009E+01
  -1.110  0.1216E+00  0.2010E+01
  -1.100  0.1350E+00  0.2012E+01
  -1.090  0.1495E+00  0.2013E+01
  -1.080  0.1653E+00  0.2015E+01
  -1.070  0.1824E+00  0.2017E+01
  -1.060  0.2010E+00  0.2019E+01
  -1.050  0.2211E+00  0.2021E+01
  -1.040  0.2429E+00  0.2023E+01
  -1.030  0.2664E+00  0.2026E+01
  -1.020  0.2919E+00  0.2029E+01
  -1.010  0.3193E+00  0.2032E+01
  -1.000  0.3489E+00  0.2035E+01
  -0.990  0.3808E+00  0.2039E+01
  -0.980  0.4150E+00  0.2043E+01
  -0.970  0.4516E+00  0.2048E+01
  -0.960  0.4909E+00  0.2053E+01
  -0.950  0.5327E+00  0.2058E+01
  -0.940  0.5772E+00  0.2064E+01
  -0.930  0.6243E+00  0.2070E+01
  -0.920  0.6741E+00  0.2077E+01
  -0.910  0.7265E+00  0.2084E+01
  -0.900  0.7813E+00  0.2092E+01
  -0.890  0.8383E+00  0.2100E+01
  -0.880  0.8975E+00  0.2109E+01
  -0.870  0.9585E+00  0.2119E+01
  -0.860  0.1021E+01  0.2129E+01
  -0.850  0.1085E+01  0.2140E+01
  -0.840  0.1149E+01  0.2151E+01
  -0.830  0.1214E+01  0.2164E+01
  -0.820  0.1278E+01  0.2176E+01
  -0.810  0.1341E+01  0.2190E+01
  -0.800  0.1403E+01  0.2204E+01
  -0.790  0.1464E+01  0.2218E+01
  -0.780  0.1521E+01  0.2234E+01
  -0.770  0.1575E+01  0.2249E+01
  -0.760  0.1626E+01  0.2266E+01
  -0.750  0.1672E+01  0.2282E+01
  -0.740  0.1713E+01  0.2300E+01
  -0.730  0.1749E+01  0.2317E+01
  -0.720  0.1779E+01  0.2335E+01
  -0.710  0.1803E+01  0.2353E+01
  -0.700  0.1820E+01  0.2371E+01
  -0.690  0.1830E+01  0.2389E+01
  -0.680  0.1834E+01  0.2408E+01
  -0.670  0.1831E+01  0.2426E+01
  -0.660  0.1821E+01  0.2444E+01
  -0.650  0.1804E+01  0.2462E+01
  -0.640  0.1781E+01  0.2480E+01
  -0.630  0.1752E+01  0.2498E+01
  -0.620  0.1717E+01  0.2515E+01
  -0.610  0.1677E+01  0.2532E+01
  -0.600  0.1633E+01  0.2548E+01
  -0.590  0.1585E+01  0.2564E+01
  -0.580  0.1534E+01  0.2579E+01
  -0.570  0.1480E+01  0.2594E+01
  -0.560  0.1424E+01  0.2608E+01
  -0.550  0.1367E+01  0.2622E+01
  -0.540  0.1310E+01  0.2635E+01
  -0.530  0.1254E+01  0.2647E+01
  -0.520  0.1198E+01  0.2659E+01
  -0.510  0.1143E+01  0.2671E+01
  -0.500  0.1091E+01  0.2682E+01
  -0.490  0.1040E+01  0.2692E+01
  -0.480  0.9932E+00  0.2702E+01
  -0.470  0.9490E+00  0.2712E+01
  -0.460  0.9081E+00  0.2721E+01
  -0.450  0.8707E+00  0.2729E+01
  -0.440  0.8367E+00  0.2738E+01
  -0.430  0.8062E+00  0.2746E+01
  -0.420  0.7791E+00  0.2754E+01
  -0.410  0.7552E+00  0.2761E+01
  -0.400  0.7343E+00  0.2768E+01
  -0.390  0.7162E+00  0.2776E+01
  -0.380  0.7006E+00  0.2783E+01
  -0.370  0.6871E+00  0.2789E+01
  -0.360  0.6754E+00  0.2796E+01
  -0.350  0.6652E+00  0.2803E+01
  -0.340  0.6562E+00  0.2809E+01
  -0.330  0.6479E+00  0.2816E+01
  -0.320  0.6401E+00  0.2822E+01
  -0.310  0.6325E+00  0.2829E+01
  -0.300  0.6247E+00  0.2835E+01
  -0.290  0.6166E+00  0.2841E+01
  -0.280  0.6079E+00  0.2847E+01
  -0.270  0.5985E+00  0.2853E+01
  -0.260  0.5881E+00  0.2859E+01
  -0.250  0.5766E+00  0.2865E+01
  -0.240  0.5640E+00  0.2870E+01
  -0.230  0.5502E+00  0.2876E+01
  -0.220  0.5351E+00  0.2881E+01
  -0.210  0.5188E+00  0.2886E+01
  -0.200  0.5013E+00  0.2891E+01
  -0.190  0.4827E+00  0.2896E+01
  -0.180  0.4630E+00  0.2901E+01
  -0.170  0.4423E+00  0.2905E+01
  -0.160  0.4207E+00  0.2910E+01
  -0.150  0.3984E+00  0.2914E+01
  -0.140  0.3755E+00  0.2917E+01
  -0.130  0.3523E+00  0.2921E+01
  -0.120  0.3288E+00  0.2924E+01
  -0.110  0.3053E+00  0.2927E+01
  -0.100  0.2819E+00  0.2930E+01
  -0.090  0.2590E+00  0.2933E+01
  -0.080  0.2366E+00  0.2935E+01
  -0.070  0.2150E+00  0.2937E+01
  -0.060  0.1945E+00  0.2939E+01
  -0.050  0.1752E+00  0.2941E+01
  -0.040  0.1572E+00  0.2942E+01
  -0.030  0.1409E+00  0.2944E+01
  -0.020  0.1263E+00  0.2945E+01
  -0.010  0.1136E+00  0.2946E+01
   0.000  0.1029E+00  0.2947E+01
   0.010  0.9425E-01  0.2948E+01
   0.020  0.8772E-01  0.2949E+01
   0.030  0.8333E-01  0.2950E+01
   0.040  0.8107E-01  0.2951E+01
   0.050  0.8087E-01  0.2951E+01
   0.060  0.8266E-01  0.2952E+01
   0.070  0.8630E-01  0.2953E+01
   0.080  0.9166E-01  0.2954E+01
   0.090  0.9856E-01  0.2955E+01
   0.100  0.1068E+00  0.2956E+01
   0.110  0.1161E+00  0.2957E+01
   0.120  0.1263E+00  0.2959E+01
   0.130  0.1371E+00  0.2960E+01
   0.140  0.1482E+00  0.2961E+01
   0.150  0.1595E+00  0.2963E+01
   0.160  0.1705E+00  0.2965E+01
   0.170  0.1812E+00  0.2967E+01
   0.180  0.1913E+00  0.2968E+01
   0.190  0.2005E+00  0.2970E+01
   0.200  0.2087E+00  0.2973E+01
   0.210  0.2157E+00  0.2975E+01
   0.220  0.2214E+00  0.2977E+01
   0.230  0.2258E+00  0.2979E+01
   0.240  0.2287E+00  0.2981E+01
   0.250  0.2302E+00  0.2984E+01
   0.260  0.2302E+00  0.2986E+01
   0.270  0.2288E+00  0.2988E+01
   0.280  0.2261E+00  0.2991E+01
   0.290  0.2221E+00  0.2993E+01
   0.300  0.2170E+00  0.2995E+01
   0.310  0.2110E+00  0.2997E+01
   0.320  0.2042E+00  0.2999E+01
   0.330  0.1968E+00  0.3001E+01
   0.340  0.1890E+00  0.3003E+01
   0.350  0.1810E+00  0.3005E+01
   0.360  0.1729E+00  0.3007E+01
   0.370  0.1651E+00  0.3008E+01
   0.380  0.1576E+00  0.3010E+01
   0.390  0.1506E+00  0.3011E+01
   0.400  0.1443E+00  0.3013E+01
   0.410  0.1389E+00  0.3014E+01
   0.420  0.1344E+00  0.3015E+01
   0.430  0.1310E+00  0.3017E+01
   0.440  0.1287E+00  0.3018E+01
   0.450  0.1276E+00  0.3019E+01
   0.460  0.1277E+00  0.3021E+01
   0.470  0.1290E+00  0.3022E+01
   0.480  0.1315E+00  0.3023E+01
   0.490  0.1351E+00  0.3025E+01
   0.500  0.1397E+00  0.3026E+01
   0.510  0.1453E+00  0.3027E+01
   0.520  0.1516E+00  0.3029E+01
   0.530  0.1586E+00  0.3030E+01
   0.540  0.1661E+00  0.3032E+01
   0.550  0.1739E+00  0.3034E+01
   0.560  0.1818E+00  0.3036E+01
   0.570  0.1897E+00  0.3038E+01
   0.580  0.1973E+00  0.3040E+01
   0.590  0.2045E+00  0.3042E+01
   0.600  0.2111E+00  0.3044E+01
   0.610  0.2170E+00  0.3046E+01
   0.620  0.2220E+00  0.3048E+01
   0.630  0.2259E+00  0.3050E+01
   0.640  0.2288E+00  0.3053E+01
   0.650  0.2305E+00  0.3055E+01
   0.660  0.2311E+00  0.3057E+01
   0.670  0.2304E+00  0.3060E+01
   0.680  0.2284E+00  0.3062E+01
   0.690  0.2254E+00  0.3064E+01
   0.700  0.2212E+00  0.3066E+01
   0.710  0.2160E+00  0.3069E+01
   0.720  0.2100E+00  0.3071E+01
   0.730  0.2031E+00  0.3073E+01
   0.740  0.1957E+00  0.3075E+01
   0.750  0.1878E+00  0.3076E+01
   0.760  0.1795E+00  0.3078E+01
   0.770  0.1711E+00  0.3080E+01
   0.780  0.1628E+00  0.3082E+01
   0.790  0.1545E+00  0.3083E+01
   0.800  0.1466E+00  0.3085E+01
   0.810  0.1391E+00  0.3086E+01
   0.820  0.1321E+00  0.3087E+01
   0.830  0.1258E+00  0.3089E+01
   0.840  0.1202E+00  0.3090E+01
   0.850  0.1154E+00  0.3091E+01
   0.860  0.1114E+00  0.3092E+01
   0.870  0.1083E+00  0.3093E+01
   0.880  0.1061E+00  0.3094E+01
   0.890  0.1047E+00  0.3095E+01
   0.900  0.1042E+00  0.3096E+01
   0.910  0.1046E+00  0.3097E+01
   0.920  0.1057E+00  0.3098E+01
   0.930  0.1075E+00  0.3099E+01
   0.940  0.1100E+00  0.3101E+01
   0.950  0.1130E+00  0.3102E+01
   0.960  0.1165E+00  0.3103E+01
   0.970  0.1204E+00  0.3104E+01
   0.980  0.1245E+00  0.3105E+01
   0.990  0.1289E+00  0.3107E+01
   1.000  0.1333E+00  0.3108E+01
   1.010  0.1377E+00  0.3109E+01
   1.020  0.1420E+00  0.3111E+01
   1.030  0.1461E+00  0.3112E+01
   1.040  0.1499E+00  0.3114E+01
   1.050  0.1534E+00  0.3115E+01
   1.060  0.1563E+00  0.3117E+01
   1.070  0.1588E+00  0.3118E+01
   1.080  0.1607E+00  0.3120E+01
   1.090  0.1620E+00  0.3122E+01
   1.100  0.1627E+00  0.3123E+01
   1.110  0.1628E+00  0.3125E+01
   1.120  0.1622E+00  0.3126E+01
   1.130  0.1611E+00  0.3128E+01
   1.140  0.1594E+00  0.3130E+01
   1.150  0.1572E+00  0.3131E+01
   1.160  0.1545E+00  0.3133E+01
   1.170  0.1514E+00  0.3134E+01
   1.180  0.1479E+00  0.3136E+01
   1.190  0.1443E+00  0.3137E+01
   1.200  0.1405E+00  0.3139E+01
   1.210  0.1366E+00  0.3140E+01
   1.220  0.1328E+00  0.3141E+01
   1.230  0.1291E+00  0.3143E+01
   1.240  0.1256E+00  0.3144E+01
   1.250  0.1225E+00  0.3145E+01
   1.260  0.1198E+00  0.3146E+01
   1.270  0.1176E+00  0.3147E+01
   1.280  0.1160E+00  0.3149E+01
   1.290  0.1150E+00  0.3150E+01
   1.300  0.1148E+00  0.3151E+01
   1.310  0.1155E+00  0.3152E+01
   1.320  0.1169E+00  0.3153E+01
   1.330  0.1193E+00  0.3154E+01
   1.340  0.1226E+00  0.3156E+01
   1.350  0.1269E+00  0.3157E+01
   1.360  0.1321E+00  0.3158E+01
   1.370  0.1383E+00  0.3160E+01
   1.380  0.1454E+00  0.3161E+01
   1.390  0.1534E+00  0.3163E+01
   1.400  0.1621E+00  0.3164E+01
   1.410  0.1717E+00  0.3166E+01
   1.420  0.1818E+00  0.3168E+01
   1.430  0.1925E+00  0.3170E+01
   1.440  0.2037E+00  0.3172E+01
   1.450  0.2151E+00  0.3174E+01
   1.460  0.2266E+00  0.3176E+01
   1.470  0.2381E+00  0.3179E+01
   1.480  0.2495E+00  0.3181E+01
   1.490  0.2606E+00  0.3184E+01
   1.500  0.2711E+00  0.3186E+01
   1.510  0.2811E+00  0.3189E+01
   1.520  0.2904E+00  0.3192E+01
   1.530  0.2988E+00  0.3195E+01
   1.540  0.3062E+00  0.3198E+01
   1.550  0.3127E+00  0.3201E+01
   1.560  0.3181E+00  0.3204E+01
   1.570  0.3224E+00  0.3208E+01
   1.580  0.3257E+00  0.3211E+01
   1.590  0.3280E+00  0.3214E+01
   1.600  0.3294E+00  0.3218E+01
   1.610  0.3299E+00  0.3221E+01
   1.620  0.3296E+00  0.3224E+01
   1.630  0.3288E+00  0.3227E+01
   1.640  0.3275E+00  0.3231E+01
   1.650  0.3259E+00  0.3234E+01
   1.660  0.3242E+00  0.3237E+01
   1.670  0.3225E+00  0.3240E+01
   1.680  0.3211E+00  0.3244E+01
   1.690  0.3200E+00  0.3247E+01
   1.700  0.3194E+00  0.3250E+01
   1.710  0.3194E+00  0.3253E+01
   1.720  0.3201E+00  0.3256E+01
   1.730  0.3217E+00  0.3260E+01
   1.740  0.3242E+00  0.3263E+01
   1.750  0.3276E+00  0.3266E+01
   1.760  0.3320E+00  0.3269E+01
   1.770  0.3373E+00  0.3273E+01
   1.780  0.3436E+00  0.3276E+01
   1.790  0.3508E+00  0.3280E+01
   1.800  0.3588E+00  0.3283E+01
   1.810  0.3676E+00  0.3287E+01
   1.820  0.3772E+00  0.3291E+01
   1.830  0.3874E+00  0.3295E+01
   1.840  0.3982E+00  0.3299E+01
   1.850  0.4094E+00  0.3303E+01
   1.860  0.4211E+00  0.3307E+01
   1.870  0.4331E+00  0.3311E+01
   1.880  0.4454E+00  0.3316E+01
   1.890  0.4578E+00  0.3320E+01
   1.900  0.4703E+00  0.3325E+01
   1.910  0.4828E+00  0.3330E+01
   1.920  0.4953E+00  0.3335E+01
   1.930  0.5076E+00  0.3340E+01
   1.940  0.5197E+00  0.3345E+01
   1.950  0.5315E+00  0.3350E+01
   1.960  0.5429E+00  0.3356E+01
   1.970  0.5538E+00  0.3361E+01
   1.980  0.5640E+00  0.3367E+01
   1.990  0.5735E+00  0.3373E+01
   2.000  0.5822E+00  0.3379E+01
   2.010  0.5899E+00  0.3384E+01
   2.020  0.5964E+00  0.3390E+01
   2.030  0.6018E+00  0.3396E+01
   2.040  0.6058E+00  0.3402E+01
   2.050  0.6084E+00  0.3409E+01
   2.060  0.6094E+00  0.3415E+01
   2.070  0.6088E+00  0.3421E+01
   2.080  0.6066E+00  0.3427E+01
   2.090  0.6027E+00  0.3433E+01
   2.100  0.5971E+00  0.3439E+01
   2.110  0.5899E+00  0.3445E+01
   2.120  0.5810E+00  0.3451E+01
   2.130  0.5706E+00  0.3456E+01
   2.140  0.5589E+00  0.3462E+01
   2.150  0.5459E+00  0.3467E+01
   2.160  0.5319E+00  0.3473E+01
   2.170  0.5171E+00  0.3478E+01
   2.180  0.5016E+00  0.3483E+01
   2.190  0.4858E+00  0.3488E+01
   2.200  0.4699E+00  0.3492E+01
   2.210  0.4541E+00  0.3497E+01
   2.220  0.4387E+00  0.3501E+01
   2.230  0.4240E+00  0.3506E+01
   2.240  0.4102E+00  0.3510E+01
   2.250  0.3974E+00  0.3514E+01
   2.260  0.3859E+00  0.3517E+01
   2.270  0.3759E+00  0.3521E+01
   2.280  0.3673E+00  0.3525E+01
   2.290  0.3604E+00  0.3528E+01
   2.300  0.3551E+00  0.3532E+01
   2.310  0.3515E+00  0.3536E+01
   2.320  0.3495E+00  0.3539E+01
   2.330  0.3489E+00  0.3543E+01
   2.340  0.3497E+00  0.3546E+01
   2.350  0.3517E+00  0.3550E+01
   2.360  0.3547E+00  0.3553E+01
   2.370  0.3586E+00  0.3557E+01
   2.380  0.3629E+00  0.3560E+01
   2.390  0.3676E+00  0.3564E+01
   2.400  0.3723E+00  0.3568E+01
   2.410  0.3769E+00  0.3571E+01
   2.420  0.3810E+00  0.3575E+01
   2.430  0.3845E+00  0.3579E+01
   2.440  0.3872E+00  0.3583E+01
   2.450  0.3888E+00  0.3587E+01
   2.460  0.3893E+00  0.3591E+01
   2.470  0.3886E+00  0.3595E+01
   2.480  0.3866E+00  0.3599E+01
   2.490  0.3832E+00  0.3602E+01
   2.500  0.3785E+00  0.3606E+01
   2.510  0.3726E+00  0.3610E+01
   2.520  0.3655E+00  0.3614E+01
   2.530  0.3574E+00  0.3617E+01
   2.540  0.3483E+00  0.3621E+01
   2.550  0.3386E+00  0.3624E+01
   2.560  0.3283E+00  0.3627E+01
   2.570  0.3177E+00  0.3630E+01
   2.580  0.3071E+00  0.3634E+01
   2.590  0.2967E+00  0.3636E+01
   2.600  0.2866E+00  0.3639E+01
   2.610  0.2772E+00  0.3642E+01
   2.620  0.2687E+00  0.3645E+01
   2.630  0.2612E+00  0.3647E+01
   2.640  0.2549E+00  0.3650E+01
   2.650  0.2501E+00  0.3652E+01
   2.660  0.2468E+00  0.3655E+01
   2.670  0.2452E+00  0.3657E+01
   2.680  0.2453E+00  0.3660E+01
   2.690  0.2472E+00  0.3662E+01
   2.700  0.2509E+00  0.3665E+01
   2.710  0.2565E+00  0.3667E+01
   2.720  0.2638E+00  0.3670E+01
   2.730  0.2727E+00  0.3673E+01
   2.740  0.2832E+00  0.3676E+01
   2.750  0.2952E+00  0.3679E+01
   2.760  0.3084E+00  0.3682E+01
   2.770  0.3227E+00  0.3685E+01
   2.780  0.3378E+00  0.3688E+01
   2.790  0.3535E+00  0.3692E+01
   2.800  0.3696E+00  0.3695E+01
   2.810  0.3858E+00  0.3699E+01
   2.820  0.4018E+00  0.3703E+01
   2.830  0.4175E+00  0.3708E+01
   2.840  0.4326E+00  0.3712E+01
   2.850  0.4467E+00  0.3716E+01
   2.860  0.4598E+00  0.3721E+01
   2.870  0.4715E+00  0.3726E+01
   2.880  0.4819E+00  0.3730E+01
   2.890  0.4906E+00  0.3735E+01
   2.900  0.4975E+00  0.3740E+01
   2.910  0.5027E+00  0.3745E+01
   2.920  0.5061E+00  0.3750E+01
   2.930  0.5076E+00  0.3755E+01
   2.940  0.5073E+00  0.3761E+01
   2.950  0.5052E+00  0.3766E+01
   2.960  0.5015E+00  0.3771E+01
   2.970  0.4963E+00  0.3776E+01
   2.980  0.4896E+00  0.3780E+01
   2.990  0.4818E+00  0.3785E+01
   3.000  0.4730E+00  0.3790E+01
   3.010  0.4634E+00  0.3795E+01
   3.020  0.4532E+00  0.3799E+01
   3.030  0.4427E+00  0.3804E+01
   3.040  0.4321E+00  0.3808E+01
   3.050  0.4215E+00  0.3812E+01
   3.060  0.4114E+00  0.3816E+01
   3.070  0.4017E+00  0.3820E+01
   3.080  0.3929E+00  0.3824E+01
   3.090  0.3849E+00  0.3828E+01
   3.100  0.3781E+00  0.3832E+01
   3.110  0.3725E+00  0.3836E+01
   3.120  0.3683E+00  0.3839E+01
   3.130  0.3657E+00  0.3843E+01
   3.140  0.3645E+00  0.3847E+01
   3.150  0.3651E+00  0.3850E+01
   3.160  0.3673E+00  0.3854E+01
   3.170  0.3712E+00  0.3858E+01
   3.180  0.3769E+00  0.3861E+01
   3.190  0.3842E+00  0.3865E+01
   3.200  0.3931E+00  0.3869E+01
   3.210  0.4036E+00  0.3873E+01
   3.220  0.4156E+00  0.3877E+01
   3.230  0.4290E+00  0.3882E+01
   3.240  0.4437E+00  0.3886E+01
   3.250  0.4595E+00  0.3891E+01
   3.260  0.4762E+00  0.3895E+01
   3.270  0.4938E+00  0.3900E+01
   3.280  0.5121E+00  0.3905E+01
   3.290  0.5308E+00  0.3911E+01
   3.300  0.5498E+00  0.3916E+01
   3.310  0.5689E+00  0.3922E+01
   3.320  0.5879E+00  0.3928E+01
   3.330  0.6067E+00  0.3934E+01
   3.340  0.6250E+00  0.3940E+01
   3.350  0.6426E+00  0.3947E+01
   3.360  0.6596E+00  0.3953E+01
   3.370  0.6755E+00  0.3960E+01
   3.380  0.6904E+00  0.3967E+01
   3.390  0.7041E+00  0.3974E+01
   3.400  0.7166E+00  0.3981E+01
   3.410  0.7276E+00  0.3988E+01
   3.420  0.7372E+00  0.3996E+01
   3.430  0.7454E+00  0.4003E+01
   3.440  0.7520E+00  0.4011E+01
   3.450  0.7571E+00  0.4018E+01
   3.460  0.7606E+00  0.4026E+01
   3.470  0.7627E+00  0.4033E+01
   3.480  0.7633E+00  0.4041E+01
   3.490  0.7624E+00  0.4049E+01
   3.500  0.7602E+00  0.4056E+01
   3.510  0.7567E+00  0.4064E+01
   3.520  0.7520E+00  0.4071E+01
   3.530  0.7462E+00  0.4079E+01
   3.540  0.7393E+00  0.4086E+01
   3.550  0.7315E+00  0.4094E+01
   3.560  0.7229E+00  0.4101E+01
   3.570  0.7136E+00  0.4108E+01
   3.580  0.7037E+00  0.4115E+01
   3.590  0.6933E+00  0.4122E+01
   3.600  0.6826E+00  0.4129E+01
   3.610  0.6717E+00  0.4135E+01
   3.620  0.6607E+00  0.4142E+01
   3.630  0.6497E+00  0.4149E+01
   3.640  0.6390E+00  0.4155E+01
   3.650  0.6285E+00  0.4161E+01
   3.660  0.6186E+00  0.4167E+01
   3.670  0.6092E+00  0.4174E+01
   3.680  0.6006E+00  0.4180E+01
   3.690  0.5929E+00  0.4185E+01
   3.700  0.5861E+00  0.4191E+01
   3.710  0.5805E+00  0.4197E+01
   3.720  0.5761E+00  0.4203E+01
   3.730  0.5730E+00  0.4209E+01
   3.740  0.5713E+00  0.4214E+01
   3.750  0.5711E+00  0.4220E+01
   3.760  0.5724E+00  0.4226E+01
   3.770  0.5754E+00  0.4232E+01
   3.780  0.5799E+00  0.4237E+01
   3.790  0.5861E+00  0.4243E+01
   3.800  0.5940E+00  0.4249E+01
   3.810  0.6034E+00  0.4255E+01
   3.820  0.6144E+00  0.4261E+01
   3.830  0.6270E+00  0.4268E+01
   3.840  0.6410E+00  0.4274E+01
   3.850  0.6564E+00  0.4281E+01
   3.860  0.6731E+00  0.4287E+01
   3.870  0.6910E+00  0.4294E+01
   3.880  0.7099E+00  0.4301E+01
   3.890  0.7298E+00  0.4309E+01
   3.900  0.7506E+00  0.4316E+01
   3.910  0.7721E+00  0.4324E+01
   3.920  0.7941E+00  0.4332E+01
   3.930  0.8167E+00  0.4340E+01
   3.940  0.8395E+00  0.4348E+01
   3.950  0.8626E+00  0.4357E+01
   3.960  0.8858E+00  0.4366E+01
   3.970  0.9089E+00  0.4375E+01
   3.980  0.9319E+00  0.4384E+01
   3.990  0.9546E+00  0.4394E+01
   4.000  0.9770E+00  0.4404E+01
   4.010  0.9990E+00  0.4414E+01
   4.020  0.1020E+01  0.4424E+01
   4.030  0.1041E+01  0.4434E+01
   4.040  0.1061E+01  0.4445E+01
   4.050  0.1081E+01  0.4456E+01
   4.060  0.1099E+01  0.4467E+01
   4.070  0.1116E+01  0.4478E+01
   4.080  0.1133E+01  0.4489E+01
   4.090  0.1148E+01  0.4501E+01
   4.100  0.1163E+01  0.4512E+01
   4.110  0.1176E+01  0.4524E+01
   4.120  0.1188E+01  0.4536E+01
   4.130  0.1199E+01  0.4548E+01
   4.140  0.1209E+01  0.4560E+01
   4.150  0.1218E+01  0.4572E+01
   4.160  0.1226E+01  0.4584E+01
   4.170  0.1233E+01  0.4597E+01
   4.180  0.1240E+01  0.4609E+01
   4.190  0.1246E+01  0.4621E+01
   4.200  0.1251E+01  0.4634E+01
   4.210  0.1257E+01  0.4647E+01
   4.220  0.1262E+01  0.4659E+01
   4.230  0.1268E+01  0.4672E+01
   4.240  0.1275E+01  0.4685E+01
   4.250  0.1282E+01  0.4697E+01
   4.260  0.1291E+01  0.4710E+01
   4.270  0.1301E+01  0.4723E+01
   4.280  0.1312E+01  0.4736E+01
   4.290  0.1325E+01  0.4750E+01
   4.300  0.1340E+01  0.4763E+01
   4.310  0.1356E+01  0.4777E+01
   4.320  0.1375E+01  0.4790E+01
   4.330  0.1394E+01  0.4804E+01
   4.340  0.1416E+01  0.4819E+01
   4.350  0.1439E+01  0.4833E+01
   4.360  0.1463E+01  0.4848E+01
   4.370  0.1488E+01  0.4862E+01
   4.380  0.1514E+01  0.4878E+01
   4.390  0.1539E+01  0.4893E+01
   4.400  0.1564E+01  0.4909E+01
   4.410  0.1589E+01  0.4925E+01
   4.420  0.1612E+01  0.4941E+01
   4.430  0.1633E+01  0.4957E+01
   4.440  0.1653E+01  0.4973E+01
   4.450  0.1670E+01  0.4990E+01
   4.460  0.1684E+01  0.5007E+01
   4.470  0.1695E+01  0.5024E+01
   4.480  0.1703E+01  0.5041E+01
   4.490  0.1707E+01  0.5058E+01
   4.500  0.1708E+01  0.5075E+01
   4.510  0.1706E+01  0.5092E+01
   4.520  0.1700E+01  0.5109E+01
   4.530  0.1691E+01  0.5126E+01
   4.540  0.1680E+01  0.5143E+01
   4.550  0.1666E+01  0.5160E+01
   4.560  0.1650E+01  0.5176E+01
   4.570  0.1632E+01  0.5192E+01
   4.580  0.1613E+01  0.5209E+01
   4.590  0.1594E+01  0.5224E+01
   4.600  0.1575E+01  0.5240E+01
   4.610  0.1556E+01  0.5256E+01
   4.620  0.1538E+01  0.5271E+01
   4.630  0.1521E+01  0.5286E+01
   4.640  0.1506E+01  0.5301E+01
   4.650  0.1494E+01  0.5316E+01
   4.660  0.1484E+01  0.5331E+01
   4.670  0.1477E+01  0.5346E+01
   4.680  0.1473E+01  0.5361E+01
   4.690  0.1473E+01  0.5375E+01
   4.700  0.1477E+01  0.5390E+01
   4.710  0.1484E+01  0.5405E+01
   4.720  0.1496E+01  0.5420E+01
   4.730  0.1511E+01  0.5435E+01
   4.740  0.1531E+01  0.5450E+01
   4.750  0.1555E+01  0.5466E+01
   4.760  0.1583E+01  0.5482E+01
   4.770  0.1615E+01  0.5498E+01
   4.780  0.1651E+01  0.5514E+01
   4.790  0.1692E+01  0.5531E+01
   4.800  0.1736E+01  0.5549E+01
   4.810  0.1785E+01  0.5567E+01
   4.820  0.1837E+01  0.5585E+01
   4.830  0.1893E+01  0.5604E+01
   4.840  0.1952E+01  0.5623E+01
   4.850  0.2015E+01  0.5644E+01
   4.860  0.2080E+01  0.5664E+01
   4.870  0.2147E+01  0.5686E+01
   4.880  0.2217E+01  0.5708E+01
   4.890  0.2287E+01  0.5731E+01
   4.900  0.2359E+01  0.5754E+01
   4.910  0.2430E+01  0.5779E+01
   4.920  0.2501E+01  0.5804E+01
   4.930  0.2570E+01  0.5829E+01
   4.940  0.2637E+01  0.5856E+01
   4.950  0.2701E+01  0.5883E+01
   4.960  0.2760E+01  0.5910E+01
   4.970  0.2814E+01  0.5939E+01
   4.980  0.2862E+01  0.5967E+01
   4.990  0.2903E+01  0.5996E+01
   5.000  0.2936E+01  0.6026E+01
   5.010  0.2960E+01  0.6055E+01
   5.020  0.2975E+01  0.6085E+01
   5.030  0.2981E+01  0.6115E+01
   5.040  0.2977E+01  0.6144E+01
   5.050  0.2962E+01  0.6174E+01
   5.060  0.2938E+01  0.6203E+01
   5.070  0.2903E+01  0.6233E+01
   5.080  0.2859E+01  0.6261E+01
   5.090  0.2806E+01  0.6289E+01
   5.100  0.2744E+01  0.6317E+01
   5.110  0.2675E+01  0.6343E+01
   5.120  0.2599E+01  0.6369E+01
   5.130  0.2517E+01  0.6395E+01
   5.140  0.2431E+01  0.6419E+01
   5.150  0.2342E+01  0.6442E+01
   5.160  0.2250E+01  0.6465E+01
   5.170  0.2158E+01  0.6486E+01
   5.180  0.2065E+01  0.6507E+01
   5.190  0.1974E+01  0.6527E+01
   5.200  0.1885E+01  0.6546E+01
   5.210  0.1799E+01  0.6564E+01
   5.220  0.1718E+01  0.6581E+01
   5.230  0.1641E+01  0.6597E+01
   5.240  0.1569E+01  0.6613E+01
   5.250  0.1503E+01  0.6628E+01
   5.260  0.1442E+01  0.6642E+01
   5.270  0.1388E+01  0.6656E+01
   5.280  0.1339E+01  0.6670E+01
   5.290  0.1296E+01  0.6683E+01
   5.300  0.1259E+01  0.6695E+01
   5.310  0.1228E+01  0.6707E+01
   5.320  0.1201E+01  0.6719E+01
   5.330  0.1179E+01  0.6731E+01
   5.340  0.1161E+01  0.6743E+01
   5.350  0.1147E+01  0.6754E+01
   5.360  0.1136E+01  0.6766E+01
   5.370  0.1128E+01  0.6777E+01
   5.380  0.1122E+01  0.6788E+01
   5.390  0.1119E+01  0.6799E+01
   5.400  0.1116E+01  0.6810E+01
   5.410  0.1116E+01  0.6822E+01
   5.420  0.1116E+01  0.6833E+01
   5.430  0.1116E+01  0.6844E+01
   5.440  0.1118E+01  0.6855E+01
   5.450  0.1120E+01  0.6866E+01
   5.460  0.1122E+01  0.6878E+01
   5.470  0.1125E+01  0.6889E+01
   5.480  0.1127E+01  0.6900E+01
   5.490  0.1131E+01  0.6911E+01
   5.500  0.1134E+01  0.6923E+01
   5.510  0.1138E+01  0.6934E+01
   5.520  0.1142E+01  0.6946E+01
   5.530  0.1148E+01  0.6957E+01
   5.540  0.1153E+01  0.6969E+01
   5.550  0.1160E+01  0.6980E+01
   5.560  0.1167E+01  0.6992E+01
   5.570  0.1175E+01  0.7004E+01
   5.580  0.1184E+01  0.7015E+01
   5.590  0.1194E+01  0.7027E+01
   5.600  0.1205E+01  0.7039E+01
   5.610  0.1216E+01  0.7052E+01
   5.620  0.1229E+01  0.7064E+01
   5.630  0.1242E+01  0.7076E+01
   5.640  0.1256E+01  0.7089E+01
   5.650  0.1270E+01  0.7102E+01
   5.660  0.1285E+01  0.7114E+01
   5.670  0.1300E+01  0.7127E+01
   5.680  0.1315E+01  0.7141E+01
   5.690  0.1329E+01  0.7154E+01
   5.700  0.1344E+01  0.7167E+01
   5.710  0.1358E+01  0.7181E+01
   5.720  0.1371E+01  0.7195E+01
   5.730  0.1383E+01  0.7208E+01
   5.740  0.1395E+01  0.7222E+01
   5.750  0.1405E+01  0.7236E+01
   5.760  0.1414E+01  0.7251E+01
   5.770  0.1423E+01  0.7265E+01
   5.780  0.1430E+01  0.7279E+01
   5.790  0.1436E+01  0.7293E+01
   5.800  0.1441E+01  0.7308E+01
   5.810  0.1444E+01  0.7322E+01
   5.820  0.1448E+01  0.7337E+01
   5.830  0.1450E+01  0.7351E+01
   5.840  0.1452E+01  0.7366E+01
   5.850  0.1454E+01  0.7380E+01
   5.860  0.1455E+01  0.7395E+01
   5.870  0.1457E+01  0.7409E+01
   5.880  0.1459E+01  0.7424E+01
   5.890  0.1462E+01  0.7439E+01
   5.900  0.1466E+01  0.7453E+01
   5.910  0.1471E+01  0.7468E+01
   5.920  0.1477E+01  0.7483E+01
   5.930  0.1484E+01  0.7498E+01
   5.940  0.1493E+01  0.7513E+01
   5.950  0.1503E+01  0.7528E+01
   5.960  0.1515E+01  0.7543E+01
   5.970  0.1528E+01  0.7558E+01
   5.980  0.1543E+01  0.7573E+01
   5.990  0.1558E+01  0.7589E+01
   6.000  0.1574E+01  0.7605E+01
   6.010  0.1591E+01  0.7621E+01
   6.020  0.1608E+01  0.7637E+01
   6.030  0.1624E+01  0.7653E+01
   6.040  0.1640E+01  0.7669E+01
   6.050  0.1654E+01  0.7686E+01
   6.060  0.1667E+01  0.7703E+01
   6.070  0.1676E+01  0.7719E+01
   6.080  0.1683E+01  0.7736E+01
   6.090  0.1686E+01  0.7753E+01
   6.100  0.1685E+01  0.7770E+01
   6.110  0.1679E+01  0.7787E+01
   6.120  0.1668E+01  0.7803E+01
   6.130  0.1651E+01  0.7820E+01
   6.140  0.1628E+01  0.7836E+01
   6.150  0.1598E+01  0.7852E+01
   6.160  0.1563E+01  0.7868E+01
   6.170  0.1520E+01  0.7883E+01
   6.180  0.1471E+01  0.7898E+01
   6.190  0.1416E+01  0.7912E+01
   6.200  0.1355E+01  0.7925E+01
   6.210  0.1289E+01  0.7938E+01
   6.220  0.1217E+01  0.7950E+01
   6.230  0.1141E+01  0.7962E+01
   6.240  0.1061E+01  0.7972E+01
   6.250  0.9782E+00  0.7982E+01
   6.260  0.8932E+00  0.7991E+01
   6.270  0.8071E+00  0.7999E+01
   6.280  0.7205E+00  0.8006E+01
   6.290  0.6345E+00  0.8013E+01
   6.300  0.5499E+00  0.8018E+01
   6.310  0.4675E+00  0.8023E+01
   6.320  0.3881E+00  0.8027E+01
   6.330  0.3124E+00  0.8030E+01
   6.340  0.2411E+00  0.8032E+01
   6.350  0.1746E+00  0.8034E+01
   6.360  0.1134E+00  0.8035E+01
   6.370  0.5774E-01  0.8036E+01
   6.380  0.7933E-02  0.8036E+01
   6.390 -0.3596E-01  0.8036E+01
   6.400 -0.7394E-01  0.8035E+01
   6.410 -0.1061E+00  0.8034E+01
   6.420 -0.1326E+00  0.8032E+01
   6.430 -0.1538E+00  0.8031E+01
   6.440 -0.1699E+00  0.8029E+01
   6.450 -0.1814E+00  0.8027E+01
   6.460 -0.1886E+00  0.8026E+01
   6.470 -0.1920E+00  0.8024E+01
   6.480 -0.1920E+00  0.8022E+01
   6.490 -0.1892E+00  0.8020E+01
   6.500 -0.1840E+00  0.8018E+01
   6.510 -0.1769E+00  0.8016E+01
   6.520 -0.1682E+00  0.8014E+01
   6.530 -0.1583E+00  0.8013E+01
   6.540 -0.1477E+00  0.8011E+01
   6.550 -0.1365E+00  0.8010E+01
   6.560 -0.1252E+00  0.8009E+01
   6.570 -0.1139E+00  0.8008E+01
   6.580 -0.1029E+00  0.8007E+01
   6.590 -0.9221E-01  0.8006E+01
   6.600 -0.8207E-01  0.8005E+01
   6.610 -0.7255E-01  0.8004E+01
   6.620 -0.6370E-01  0.8004E+01
   6.630 -0.5557E-01  0.8003E+01
   6.640 -0.4817E-01  0.8003E+01
   6.650 -0.4149E-01  0.8002E+01
   6.660 -0.3551E-01  0.8002E+01
   6.670 -0.3021E-01  0.8001E+01
   6.680 -0.2555E-01  0.8001E+01
   6.690 -0.2148E-01  0.8001E+01
   6.700 -0.1795E-01  0.8001E+01
   6.710 -0.1491E-01  0.8001E+01
   6.720 -0.1232E-01  0.8001E+01
   6.730 -0.1012E-01  0.8000E+01
   6.740 -0.8264E-02  0.8000E+01
   6.750 -0.6711E-02  0.8000E+01
   6.760 -0.5420E-02  0.8000E+01
   6.770 -0.4353E-02  0.8000E+01
   6.780 -0.3476E-02  0.8000E+01
   6.790 -0.2761E-02  0.8000E+01
   6.800 -0.2181E-02  0.8000E+01
   6.810 -0.1713E-02  0.8000E+01
   6.820 -0.1339E-02  0.8000E+01
   6.830 -0.1040E-02  0.8000E+01
   6.840 -0.8041E-03  0.8000E+01
   6.850 -0.6182E-03  0.8000E+01
   6.860 -0.4727E-03  0.8000E+01
   6.870 -0.3594E-03  0.8000E+01
   6.880 -0.2718E-03  0.8000E+01
   6.890 -0.2043E-03  0.8000E+01
   6.900 -0.1527E-03  0.8000E+01
   6.910 -0.1133E-03  0.8000E+01
   6.920 -0.8331E-04  0.8000E+01
   6.930 -0.6053E-04  0.8000E+01
   6.940 -0.4315E-04  0.8000E+01
   6.950 -0.2975E-04  0.8000E+01
   6.960 -0.1916E-04  0.8000E+01
   6.970 -0.1044E-04  0.8000E+01
   6.980 -0.2781E-05  0.8000E+01
   6.990  0.4553E-05  0.8000E+01
   7.000  0.1226E-04  0.8000E+01
   7.010  0.2106E-04  0.8000E+01
   7.020  0.3175E-04  0.8000E+01
   7.030  0.4527E-04  0.8000E+01
   7.040  0.6272E-04  0.8000E+01
   7.050  0.8550E-04  0.8000E+01
   7.060  0.1153E-03  0.8000E+01
   7.070  0.1544E-03  0.8000E+01
   7.080  0.2054E-03  0.8000E+01
   7.090  0.2717E-03  0.8000E+01
   7.100  0.3577E-03  0.8000E+01
   7.110  0.4686E-03  0.8000E+01
   7.120  0.6110E-03  0.8000E+01
   7.130  0.7928E-03  0.8000E+01
   7.140  0.1024E-02  0.8000E+01
   7.150  0.1317E-02  0.8000E+01
   7.160  0.1685E-02  0.8000E+01
   7.170  0.2147E-02  0.8000E+01
   7.180  0.2722E-02  0.8000E+01
   7.190  0.3436E-02  0.8000E+01
   7.200  0.4318E-02  0.8000E+01
   7.210  0.5402E-02  0.8000E+01
   7.220  0.6727E-02  0.8000E+01
   7.230  0.8340E-02  0.8000E+01
   7.240  0.1029E-01  0.8001E+01
   7.250  0.1265E-01  0.8001E+01
   7.260  0.1547E-01  0.8001E+01
   7.270  0.1884E-01  0.8001E+01
   7.280  0.2284E-01  0.8001E+01
   7.290  0.2757E-01  0.8001E+01
   7.300  0.3314E-01  0.8002E+01
   7.310  0.3965E-01  0.8002E+01
   7.320  0.4723E-01  0.8003E+01
   7.330  0.5603E-01  0.8003E+01
   7.340  0.6616E-01  0.8004E+01
   7.350  0.7780E-01  0.8005E+01
   7.360  0.9109E-01  0.8006E+01
   7.370  0.1062E+00  0.8007E+01
   7.380  0.1232E+00  0.8008E+01
   7.390  0.1424E+00  0.8009E+01
   7.400  0.1639E+00  0.8011E+01
   7.410  0.1878E+00  0.8013E+01
   7.420  0.2143E+00  0.8015E+01
   7.430  0.2434E+00  0.8017E+01
   7.440  0.2753E+00  0.8020E+01
   7.450  0.3101E+00  0.8023E+01
   7.460  0.3478E+00  0.8027E+01
   7.470  0.3885E+00  0.8031E+01
   7.480  0.4320E+00  0.8035E+01
   7.490  0.4783E+00  0.8040E+01
   7.500  0.5274E+00  0.8045E+01
   7.510  0.5791E+00  0.8051E+01
   7.520  0.6331E+00  0.8057E+01
   7.530  0.6892E+00  0.8064E+01
   7.540  0.7471E+00  0.8071E+01
   7.550  0.8065E+00  0.8080E+01
   7.560  0.8670E+00  0.8088E+01
   7.570  0.9280E+00  0.8097E+01
   7.580  0.9892E+00  0.8107E+01
   7.590  0.1050E+01  0.8118E+01
   7.600  0.1110E+01  0.8129E+01
   7.610  0.1169E+01  0.8141E+01
   7.620  0.1225E+01  0.8153E+01
   7.630  0.1280E+01  0.8166E+01
   7.640  0.1331E+01  0.8179E+01
   7.650  0.1379E+01  0.8193E+01
   7.660  0.1423E+01  0.8207E+01
   7.670  0.1463E+01  0.8222E+01
   7.680  0.1498E+01  0.8237E+01
   7.690  0.1529E+01  0.8252E+01
   7.700  0.1554E+01  0.8268E+01
   7.710  0.1575E+01  0.8283E+01
   7.720  0.1590E+01  0.8299E+01
   7.730  0.1601E+01  0.8315E+01
   7.740  0.1607E+01  0.8331E+01
   7.750  0.1608E+01  0.8347E+01
   7.760  0.1604E+01  0.8363E+01
   7.770  0.1597E+01  0.8379E+01
   7.780  0.1586E+01  0.8395E+01
   7.790  0.1572E+01  0.8411E+01
   7.800  0.1555E+01  0.8426E+01
   7.810  0.1536E+01  0.8442E+01
   7.820  0.1515E+01  0.8457E+01
   7.830  0.1493E+01  0.8472E+01
   7.840  0.1470E+01  0.8487E+01
   7.850  0.1447E+01  0.8501E+01
   7.860  0.1425E+01  0.8515E+01
   7.870  0.1403E+01  0.8529E+01
   7.880  0.1383E+01  0.8543E+01
   7.890  0.1364E+01  0.8557E+01
   7.900  0.1347E+01  0.8570E+01
   7.910  0.1332E+01  0.8584E+01
   7.920  0.1320E+01  0.8597E+01
   7.930  0.1310E+01  0.8610E+01
   7.940  0.1304E+01  0.8623E+01
   7.950  0.1300E+01  0.8636E+01
   7.960  0.1301E+01  0.8649E+01
   7.970  0.1304E+01  0.8662E+01
   7.980  0.1311E+01  0.8675E+01
   7.990  0.1322E+01  0.8688E+01
   8.000  0.1336E+01  0.8702E+01
   8.010  0.1354E+01  0.8715E+01
   8.020  0.1376E+01  0.8729E+01
   8.030  0.1401E+01  0.8743E+01
   8.040  0.1429E+01  0.8757E+01
   8.050  0.1460E+01  0.8772E+01
   8.060  0.1495E+01  0.8787E+01
   8.070  0.1531E+01  0.8802E+01
   8.080  0.1570E+01  0.8818E+01
   8.090  0.1611E+01  0.8834E+01
   8.100  0.1653E+01  0.8850E+01
   8.110  0.1696E+01  0.8867E+01
   8.120  0.1739E+01  0.8885E+01
   8.130  0.1782E+01  0.8903E+01
   8.140  0.1824E+01  0.8921E+01
   8.150  0.1864E+01  0.8940E+01
   8.160  0.1902E+01  0.8959E+01
   8.170  0.1937E+01  0.8978E+01
   8.180  0.1969E+01  0.8998E+01
   8.190  0.1997E+01  0.9018E+01
   8.200  0.2020E+01  0.9038E+01
   8.210  0.2039E+01  0.9058E+01
   8.220  0.2052E+01  0.9079E+01
   8.230  0.2059E+01  0.9099E+01
   8.240  0.2061E+01  0.9120E+01
   8.250  0.2057E+01  0.9140E+01
   8.260  0.2047E+01  0.9161E+01
   8.270  0.2032E+01  0.9181E+01
   8.280  0.2011E+01  0.9201E+01
   8.290  0.1984E+01  0.9221E+01
   8.300  0.1953E+01  0.9241E+01
   8.310  0.1917E+01  0.9260E+01
   8.320  0.1877E+01  0.9279E+01
   8.330  0.1834E+01  0.9297E+01
   8.340  0.1788E+01  0.9315E+01
   8.350  0.1740E+01  0.9332E+01
   8.360  0.1690E+01  0.9349E+01
   8.370  0.1639E+01  0.9366E+01
   8.380  0.1588E+01  0.9381E+01
   8.390  0.1537E+01  0.9397E+01
   8.400  0.1488E+01  0.9412E+01
   8.410  0.1440E+01  0.9426E+01
   8.420  0.1396E+01  0.9440E+01
   8.430  0.1354E+01  0.9454E+01
   8.440  0.1316E+01  0.9467E+01
   8.450  0.1282E+01  0.9480E+01
   8.460  0.1254E+01  0.9492E+01
   8.470  0.1231E+01  0.9504E+01
   8.480  0.1213E+01  0.9517E+01
   8.490  0.1202E+01  0.9529E+01
   8.500  0.1198E+01  0.9541E+01
   8.510  0.1200E+01  0.9553E+01
   8.520  0.1210E+01  0.9565E+01
   8.530  0.1226E+01  0.9577E+01
   8.540  0.1250E+01  0.9589E+01
   8.550  0.1280E+01  0.9602E+01
   8.560  0.1318E+01  0.9615E+01
   8.570  0.1361E+01  0.9629E+01
   8.580  0.1411E+01  0.9643E+01
   8.590  0.1466E+01  0.9658E+01
   8.600  0.1526E+01  0.9673E+01
   8.610  0.1590E+01  0.9689E+01
   8.620  0.1657E+01  0.9706E+01
   8.630  0.1725E+01  0.9723E+01
   8.640  0.1795E+01  0.9741E+01
   8.650  0.1865E+01  0.9759E+01
   8.660  0.1933E+01  0.9779E+01
   8.670  0.1999E+01  0.9799E+01
   8.680  0.2061E+01  0.9819E+01
   8.690  0.2118E+01  0.9840E+01
   8.700  0.2170E+01  0.9862E+01
   8.710  0.2214E+01  0.9884E+01
   8.720  0.2251E+01  0.9907E+01
   8.730  0.2280E+01  0.9930E+01
   8.740  0.2299E+01  0.9953E+01
   8.750  0.2309E+01  0.9976E+01
   8.760  0.2309E+01  0.9999E+01
   8.770  0.2300E+01  0.1002E+02
   8.780  0.2280E+01  0.1004E+02
   8.790  0.2251E+01  0.1007E+02
   8.800  0.2214E+01  0.1009E+02
   8.810  0.2167E+01  0.1011E+02
   8.820  0.2114E+01  0.1013E+02
   8.830  0.2053E+01  0.1015E+02
   8.840  0.1987E+01  0.1017E+02
   8.850  0.1917E+01  0.1019E+02
   8.860  0.1843E+01  0.1021E+02
   8.870  0.1767E+01  0.1023E+02
   8.880  0.1689E+01  0.1024E+02
   8.890  0.1612E+01  0.1026E+02
   8.900  0.1536E+01  0.1028E+02
   8.910  0.1462E+01  0.1029E+02
   8.920  0.1392E+01  0.1030E+02
   8.930  0.1325E+01  0.1032E+02
   8.940  0.1263E+01  0.1033E+02
   8.950  0.1206E+01  0.1034E+02
   8.960  0.1155E+01  0.1035E+02
   8.970  0.1109E+01  0.1037E+02
   8.980  0.1070E+01  0.1038E+02
   8.990  0.1036E+01  0.1039E+02
   9.000  0.1009E+01  0.1040E+02
   9.010  0.9878E+00  0.1041E+02
   9.020  0.9720E+00  0.1042E+02
   9.030  0.9616E+00  0.1043E+02
   9.040  0.9560E+00  0.1044E+02
   9.050  0.9551E+00  0.1044E+02
   9.060  0.9583E+00  0.1045E+02
   9.070  0.9653E+00  0.1046E+02
   9.080  0.9759E+00  0.1047E+02
   9.090  0.9895E+00  0.1048E+02
   9.100  0.1006E+01  0.1049E+02
   9.110  0.1026E+01  0.1050E+02
   9.120  0.1048E+01  0.1051E+02
   9.130  0.1072E+01  0.1053E+02
   9.140  0.1099E+01  0.1054E+02
   9.150  0.1130E+01  0.1055E+02
   9.160  0.1163E+01  0.1056E+02
   9.170  0.1199E+01  0.1057E+02
   9.180  0.1239E+01  0.1058E+02
   9.190  0.1284E+01  0.1060E+02
   9.200  0.1332E+01  0.1061E+02
   9.210  0.1386E+01  0.1062E+02
   9.220  0.1445E+01  0.1064E+02
   9.230  0.1510E+01  0.1065E+02
   9.240  0.1581E+01  0.1067E+02
   9.250  0.1659E+01  0.1069E+02
   9.260  0.1744E+01  0.1070E+02
   9.270  0.1835E+01  0.1072E+02
   9.280  0.1934E+01  0.1074E+02
   9.290  0.2040E+01  0.1076E+02
   9.300  0.2154E+01  0.1078E+02
   9.310  0.2273E+01  0.1081E+02
   9.320  0.2400E+01  0.1083E+02
   9.330  0.2532E+01  0.1085E+02
   9.340  0.2669E+01  0.1088E+02
   9.350  0.2810E+01  0.1091E+02
   9.360  0.2954E+01  0.1094E+02
   9.370  0.3100E+01  0.1097E+02
   9.380  0.3248E+01  0.1100E+02
   9.390  0.3395E+01  0.1104E+02
   9.400  0.3540E+01  0.1107E+02
   9.410  0.3681E+01  0.1111E+02
   9.420  0.3818E+01  0.1115E+02
   9.430  0.3949E+01  0.1119E+02
   9.440  0.4072E+01  0.1123E+02
   9.450  0.4187E+01  0.1127E+02
   9.460  0.4291E+01  0.1131E+02
   9.470  0.4383E+01  0.1136E+02
   9.480  0.4463E+01  0.1140E+02
   9.490  0.4530E+01  0.1145E+02
   9.500  0.4582E+01  0.1149E+02
   9.510  0.4619E+01  0.1154E+02
   9.520  0.4641E+01  0.1158E+02
   9.530  0.4648E+01  0.1163E+02
   9.540  0.4639E+01  0.1168E+02
   9.550  0.4614E+01  0.1172E+02
   9.560  0.4575E+01  0.1177E+02
   9.570  0.4520E+01  0.1181E+02
   9.580  0.4452E+01  0.1186E+02
   9.590  0.4370E+01  0.1190E+02
   9.600  0.4276E+01  0.1194E+02
   9.610  0.4171E+01  0.1199E+02
   9.620  0.4055E+01  0.1203E+02
   9.630  0.3930E+01  0.1207E+02
   9.640  0.3798E+01  0.1210E+02
   9.650  0.3658E+01  0.1214E+02
   9.660  0.3514E+01  0.1218E+02
   9.670  0.3365E+01  0.1221E+02
   9.680  0.3213E+01  0.1224E+02
   9.690  0.3060E+01  0.1227E+02
   9.700  0.2907E+01  0.1230E+02
   9.710  0.2754E+01  0.1233E+02
   9.720  0.2604E+01  0.1236E+02
   9.730  0.2456E+01  0.1238E+02
   9.740  0.2312E+01  0.1240E+02
   9.750  0.2174E+01  0.1242E+02
   9.760  0.2041E+01  0.1244E+02
   9.770  0.1914E+01  0.1246E+02
   9.780  0.1795E+01  0.1248E+02
   9.790  0.1683E+01  0.1250E+02
   9.800  0.1580E+01  0.1251E+02
   9.810  0.1485E+01  0.1253E+02
   9.820  0.1400E+01  0.1254E+02
   9.830  0.1324E+01  0.1256E+02
   9.840  0.1257E+01  0.1257E+02
   9.850  0.1200E+01  0.1258E+02
   9.860  0.1153E+01  0.1259E+02
   9.870  0.1115E+01  0.1260E+02
   9.880  0.1087E+01  0.1261E+02
   9.890  0.1067E+01  0.1263E+02
   9.900  0.1056E+01  0.1264E+02
   9.910  0.1053E+01  0.1265E+02
   9.920  0.1058E+01  0.1266E+02
   9.930  0.1070E+01  0.1267E+02
   9.940  0.1088E+01  0.1268E+02
   9.950  0.1112E+01  0.1269E+02
   9.960  0.1141E+01  0.1270E+02
   9.970  0.1174E+01  0.1271E+02
   9.980  0.1211E+01  0.1273E+02
   9.990  0.1250E+01  0.1274E+02
  10.000  0.1291E+01  0.1275E+02
  10.010  0.1333E+01  0.1276E+02
  10.020  0.1375E+01  0.1278E+02
  10.030  0.1416E+01  0.1279E+02
  10.040  0.1457E+01  0.1281E+02
  10.050  0.1495E+01  0.1282E+02
  10.060  0.1530E+01  0.1284E+02
  10.070  0.1562E+01  0.1285E+02
  10.080  0.1591E+01  0.1287E+02
  10.090  0.1616E+01  0.1288E+02
  10.100  0.1636E+01  0.1290E+02
  10.110  0.1651E+01  0.1292E+02
  10.120  0.1662E+01  0.1293E+02
  10.130  0.1668E+01  0.1295E+02
  10.140  0.1669E+01  0.1297E+02
  10.150  0.1666E+01  0.1298E+02
  10.160  0.1658E+01  0.1300E+02
  10.170  0.1645E+01  0.1302E+02
  10.180  0.1628E+01  0.1303E+02
  10.190  0.1608E+01  0.1305E+02
  10.200  0.1584E+01  0.1307E+02
  10.210  0.1557E+01  0.1308E+02
  10.220  0.1527E+01  0.1310E+02
  10.230  0.1495E+01  0.1311E+02
  10.240  0.1462E+01  0.1313E+02
  10.250  0.1427E+01  0.1314E+02
  10.260  0.1392E+01  0.1315E+02
  10.270  0.1356E+01  0.1317E+02
  10.280  0.1321E+01  0.1318E+02
  10.290  0.1286E+01  0.1319E+02
  10.300  0.1252E+01  0.1321E+02
  10.310  0.1220E+01  0.1322E+02
  10.320  0.1190E+01  0.1323E+02
  10.330  0.1162E+01  0.1324E+02
  10.340  0.1137E+01  0.1325E+02
  10.350  0.1115E+01  0.1326E+02
  10.360  0.1095E+01  0.1327E+02
  10.370  0.1080E+01  0.1329E+02
  10.380  0.1067E+01  0.1330E+02
  10.390  0.1059E+01  0.1331E+02
  10.400  0.1054E+01  0.1332E+02
  10.410  0.1053E+01  0.1333E+02
  10.420  0.1056E+01  0.1334E+02
  10.430  0.1063E+01  0.1335E+02
  10.440  0.1074E+01  0.1336E+02
  10.450  0.1088E+01  0.1337E+02
  10.460  0.1105E+01  0.1338E+02
  10.470  0.1126E+01  0.1339E+02
  10.480  0.1150E+01  0.1340E+02
  10.490  0.1176E+01  0.1342E+02
  10.500  0.1205E+01  0.1343E+02
  10.510  0.1236E+01  0.1344E+02
  10.520  0.1269E+01  0.1345E+02
  10.530  0.1303E+01  0.1347E+02
  10.540  0.1337E+01  0.1348E+02
  10.550  0.1372E+01  0.1349E+02
  10.560  0.1407E+01  0.1351E+02
  10.570  0.1441E+01  0.1352E+02
  10.580  0.1474E+01  0.1354E+02
  10.590  0.1506E+01  0.1355E+02
  10.600  0.1536E+01  0.1357E+02
  10.610  0.1563E+01  0.1358E+02
  10.620  0.1587E+01  0.1360E+02
  10.630  0.1608E+01  0.1361E+02
  10.640  0.1626E+01  0.1363E+02
  10.650  0.1641E+01  0.1365E+02
  10.660  0.1651E+01  0.1366E+02
  10.670  0.1657E+01  0.1368E+02
  10.680  0.1660E+01  0.1370E+02
  10.690  0.1659E+01  0.1371E+02
  10.700  0.1654E+01  0.1373E+02
  10.710  0.1645E+01  0.1375E+02
  10.720  0.1633E+01  0.1376E+02
  10.730  0.1618E+01  0.1378E+02
  10.740  0.1601E+01  0.1380E+02
  10.750  0.1581E+01  0.1381E+02
  10.760  0.1560E+01  0.1383E+02
  10.770  0.1537E+01  0.1384E+02
  10.780  0.1514E+01  0.1386E+02
  10.790  0.1491E+01  0.1387E+02
  10.800  0.1467E+01  0.1389E+02
  10.810  0.1444E+01  0.1390E+02
  10.820  0.1422E+01  0.1392E+02
  10.830  0.1402E+01  0.1393E+02
  10.840  0.1382E+01  0.1394E+02
  10.850  0.1365E+01  0.1396E+02
  10.860  0.1348E+01  0.1397E+02
  10.870  0.1334E+01  0.1398E+02
  10.880  0.1321E+01  0.1400E+02
  10.890  0.1310E+01  0.1401E+02
  10.900  0.1300E+01  0.1402E+02
  10.910  0.1291E+01  0.1404E+02
  10.920  0.1283E+01  0.1405E+02
  10.930  0.1276E+01  0.1406E+02
  10.940  0.1268E+01  0.1407E+02
  10.950  0.1261E+01  0.1409E+02
  10.960  0.1252E+01  0.1410E+02
  10.970  0.1243E+01  0.1411E+02
  10.980  0.1233E+01  0.1412E+02
  10.990  0.1221E+01  0.1414E+02
  11.000  0.1207E+01  0.1415E+02
  11.010  0.1191E+01  0.1416E+02
  11.020  0.1174E+01  0.1417E+02
  11.030  0.1154E+01  0.1418E+02
  11.040  0.1131E+01  0.1420E+02
  11.050  0.1107E+01  0.1421E+02
  11.060  0.1080E+01  0.1422E+02
  11.070  0.1051E+01  0.1423E+02
  11.080  0.1021E+01  0.1424E+02
  11.090  0.9882E+00  0.1425E+02
  11.100  0.9543E+00  0.1426E+02
  11.110  0.9192E+00  0.1427E+02
  11.120  0.8831E+00  0.1428E+02
  11.130  0.8464E+00  0.1428E+02
  11.140  0.8094E+00  0.1429E+02
  11.150  0.7724E+00  0.1430E+02
  11.160  0.7357E+00  0.1431E+02
  11.170  0.6995E+00  0.1431E+02
  11.180  0.6642E+00  0.1432E+02
  11.190  0.6301E+00  0.1433E+02
  11.200  0.5972E+00  0.1433E+02
  11.210  0.5660E+00  0.1434E+02
  11.220  0.5364E+00  0.1434E+02
  11.230  0.5088E+00  0.1435E+02
  11.240  0.4830E+00  0.1435E+02
  11.250  0.4594E+00  0.1436E+02
  11.260  0.4378E+00  0.1436E+02
  11.270  0.4184E+00  0.1437E+02
  11.280  0.4011E+00  0.1437E+02
  11.290  0.3859E+00  0.1437E+02
  11.300  0.3728E+00  0.1438E+02
  11.310  0.3617E+00  0.1438E+02
  11.320  0.3525E+00  0.1439E+02
  11.330  0.3453E+00  0.1439E+02
  11.340  0.3398E+00  0.1439E+02
  11.350  0.3361E+00  0.1440E+02
  11.360  0.3341E+00  0.1440E+02
  11.370  0.3337E+00  0.1440E+02
  11.380  0.3348E+00  0.1441E+02
  11.390  0.3374E+00  0.1441E+02
  11.400  0.3414E+00  0.1441E+02
  11.410  0.3468E+00  0.1442E+02
  11.420  0.3535E+00  0.1442E+02
  11.430  0.3615E+00  0.1442E+02
  11.440  0.3708E+00  0.1443E+02
  11.450  0.3812E+00  0.1443E+02
  11.460  0.3927E+00  0.1443E+02
  11.470  0.4052E+00  0.1444E+02
  11.480  0.4187E+00  0.1444E+02
  11.490  0.4330E+00  0.1445E+02
  11.500  0.4481E+00  0.1445E+02
  11.510  0.4638E+00  0.1446E+02
  11.520  0.4799E+00  0.1446E+02
  11.530  0.4963E+00  0.1447E+02
  11.540  0.5128E+00  0.1447E+02
  11.550  0.5292E+00  0.1448E+02
  11.560  0.5452E+00  0.1448E+02
  11.570  0.5608E+00  0.1449E+02
  11.580  0.5756E+00  0.1449E+02
  11.590  0.5895E+00  0.1450E+02
  11.600  0.6022E+00  0.1451E+02
  11.610  0.6136E+00  0.1451E+02
  11.620  0.6234E+00  0.1452E+02
  11.630  0.6315E+00  0.1452E+02
  11.640  0.6379E+00  0.1453E+02
  11.650  0.6424E+00  0.1454E+02
  11.660  0.6449E+00  0.1454E+02
  11.670  0.6455E+00  0.1455E+02
  11.680  0.6442E+00  0.1456E+02
  11.690  0.6409E+00  0.1456E+02
  11.700  0.6359E+00  0.1457E+02
  11.710  0.6292E+00  0.1458E+02
  11.720  0.6211E+00  0.1458E+02
  11.730  0.6116E+00  0.1459E+02
  11.740  0.6011E+00  0.1459E+02
  11.750  0.5896E+00  0.1460E+02
  11.760  0.5776E+00  0.1461E+02
  11.770  0.5651E+00  0.1461E+02
  11.780  0.5525E+00  0.1462E+02
  11.790  0.5400E+00  0.1462E+02
  11.800  0.5278E+00  0.1463E+02
  11.810  0.5161E+00  0.1463E+02
  11.820  0.5050E+00  0.1464E+02
  11.830  0.4948E+00  0.1464E+02
  11.840  0.4856E+00  0.1465E+02
  11.850  0.4775E+00  0.1465E+02
  11.860  0.4705E+00  0.1466E+02
  11.870  0.4647E+00  0.1466E+02
  11.880  0.4601E+00  0.1467E+02
  11.890  0.4567E+00  0.1467E+02
  11.900  0.4544E+00  0.1467E+02
  11.910  0.4534E+00  0.1468E+02
  11.920  0.4533E+00  0.1468E+02
  11.930  0.4543E+00  0.1469E+02
  11.940  0.4561E+00  0.1469E+02
  11.950  0.4587E+00  0.1470E+02
  11.960  0.4619E+00  0.1470E+02
  11.970  0.4657E+00  0.1471E+02
  11.980  0.4699E+00  0.1471E+02
  11.990  0.4744E+00  0.1472E+02
  12.000  0.4791E+00  0.1472E+02
  12.010  0.4838E+00  0.1473E+02
  12.020  0.4884E+00  0.1473E+02
  12.030  0.4929E+00  0.1474E+02
  12.040  0.4970E+00  0.1474E+02
  12.050  0.5007E+00  0.1475E+02
  12.060  0.5039E+00  0.1475E+02
  12.070  0.5064E+00  0.1476E+02
  12.080  0.5082E+00  0.1476E+02
  12.090  0.5092E+00  0.1477E+02
  12.100  0.5094E+00  0.1477E+02
  12.110  0.5086E+00  0.1478E+02
  12.120  0.5069E+00  0.1478E+02
  12.130  0.5042E+00  0.1479E+02
  12.140  0.5004E+00  0.1479E+02
  12.150  0.4958E+00  0.1480E+02
  12.160  0.4901E+00  0.1480E+02
  12.170  0.4836E+00  0.1481E+02
  12.180  0.4763E+00  0.1481E+02
  12.190  0.4683E+00  0.1482E+02
  12.200  0.4597E+00  0.1482E+02
  12.210  0.4507E+00  0.1482E+02
  12.220  0.4414E+00  0.1483E+02
  12.230  0.4319E+00  0.1483E+02
  12.240  0.4225E+00  0.1484E+02
  12.250  0.4133E+00  0.1484E+02
  12.260  0.4045E+00  0.1485E+02
  12.270  0.3963E+00  0.1485E+02
  12.280  0.3888E+00  0.1485E+02
  12.290  0.3822E+00  0.1486E+02
  12.300  0.3766E+00  0.1486E+02
  12.310  0.3721E+00  0.1486E+02
  12.320  0.3689E+00  0.1487E+02
  12.330  0.3670E+00  0.1487E+02
  12.340  0.3665E+00  0.1488E+02
  12.350  0.3674E+00  0.1488E+02
  12.360  0.3697E+00  0.1488E+02
  12.370  0.3734E+00  0.1489E+02
  12.380  0.3785E+00  0.1489E+02
  12.390  0.3849E+00  0.1489E+02
  12.400  0.3926E+00  0.1490E+02
  12.410  0.4015E+00  0.1490E+02
  12.420  0.4115E+00  0.1491E+02
  12.430  0.4225E+00  0.1491E+02
  12.440  0.4345E+00  0.1492E+02
  12.450  0.4473E+00  0.1492E+02
  12.460  0.4609E+00  0.1492E+02
  12.470  0.4752E+00  0.1493E+02
  12.480  0.4901E+00  0.1493E+02
  12.490  0.5056E+00  0.1494E+02
  12.500  0.5215E+00  0.1494E+02
  12.510  0.5379E+00  0.1495E+02
  12.520  0.5547E+00  0.1496E+02
  12.530  0.5718E+00  0.1496E+02
  12.540  0.5892E+00  0.1497E+02
  12.550  0.6067E+00  0.1497E+02
  12.560  0.6244E+00  0.1498E+02
  12.570  0.6421E+00  0.1499E+02
  12.580  0.6597E+00  0.1499E+02
  12.590  0.6772E+00  0.1500E+02
  12.600  0.6944E+00  0.1501E+02
  12.610  0.7112E+00  0.1501E+02
  12.620  0.7275E+00  0.1502E+02
  12.630  0.7432E+00  0.1503E+02
  12.640  0.7580E+00  0.1504E+02
  12.650  0.7718E+00  0.1504E+02
  12.660  0.7846E+00  0.1505E+02
  12.670  0.7960E+00  0.1506E+02
  12.680  0.8061E+00  0.1507E+02
  12.690  0.8147E+00  0.1507E+02
  12.700  0.8218E+00  0.1508E+02
  12.710  0.8272E+00  0.1509E+02
  12.720  0.8309E+00  0.1510E+02
  12.730  0.8329E+00  0.1511E+02
  12.740  0.8332E+00  0.1512E+02
  12.750  0.8320E+00  0.1512E+02
  12.760  0.8292E+00  0.1513E+02
  12.770  0.8251E+00  0.1514E+02
  12.780  0.8199E+00  0.1515E+02
  12.790  0.8136E+00  0.1516E+02
  12.800  0.8066E+00  0.1517E+02
  12.810  0.7991E+00  0.1517E+02
  12.820  0.7913E+00  0.1518E+02
  12.830  0.7837E+00  0.1519E+02
  12.840  0.7763E+00  0.1520E+02
  12.850  0.7696E+00  0.1520E+02
  12.860  0.7638E+00  0.1521E+02
  12.870  0.7593E+00  0.1522E+02
  12.880  0.7562E+00  0.1523E+02
  12.890  0.7550E+00  0.1524E+02
  12.900  0.7557E+00  0.1524E+02
  12.910  0.7586E+00  0.1525E+02
  12.920  0.7640E+00  0.1526E+02
  12.930  0.7719E+00  0.1527E+02
  12.940  0.7826E+00  0.1527E+02
  12.950  0.7962E+00  0.1528E+02
  12.960  0.8127E+00  0.1529E+02
  12.970  0.8323E+00  0.1530E+02
  12.980  0.8549E+00  0.1531E+02
  12.990  0.8807E+00  0.1532E+02
  13.000  0.9095E+00  0.1532E+02
  13.010  0.9414E+00  0.1533E+02
  13.020  0.9762E+00  0.1534E+02
  13.030  0.1014E+01  0.1535E+02
  13.040  0.1054E+01  0.1536E+02
  13.050  0.1098E+01  0.1538E+02
  13.060  0.1143E+01  0.1539E+02
  13.070  0.1191E+01  0.1540E+02
  13.080  0.1240E+01  0.1541E+02
  13.090  0.1291E+01  0.1542E+02
  13.100  0.1344E+01  0.1544E+02
  13.110  0.1397E+01  0.1545E+02
  13.120  0.1451E+01  0.1547E+02
  13.130  0.1504E+01  0.1548E+02
  13.140  0.1558E+01  0.1550E+02
  13.150  0.1610E+01  0.1551E+02
  13.160  0.1661E+01  0.1553E+02
  13.170  0.1709E+01  0.1555E+02
  13.180  0.1756E+01  0.1556E+02
  13.190  0.1799E+01  0.1558E+02
  13.200  0.1839E+01  0.1560E+02
  13.210  0.1874E+01  0.1562E+02
  13.220  0.1906E+01  0.1564E+02
  13.230  0.1932E+01  0.1566E+02
  13.240  0.1953E+01  0.1568E+02
  13.250  0.1969E+01  0.1570E+02
  13.260  0.1980E+01  0.1572E+02
  13.270  0.1985E+01  0.1574E+02
  13.280  0.1985E+01  0.1576E+02
  13.290  0.1979E+01  0.1578E+02
  13.300  0.1967E+01  0.1580E+02
  13.310  0.1951E+01  0.1581E+02
  13.320  0.1930E+01  0.1583E+02
  13.330  0.1906E+01  0.1585E+02
  13.340  0.1877E+01  0.1587E+02
  13.350  0.1846E+01  0.1589E+02
  13.360  0.1813E+01  0.1591E+02
  13.370  0.1778E+01  0.1593E+02
  13.380  0.1742E+01  0.1594E+02
  13.390  0.1707E+01  0.1596E+02
  13.400  0.1672E+01  0.1598E+02
  13.410  0.1639E+01  0.1599E+02
  13.420  0.1609E+01  0.1601E+02
  13.430  0.1582E+01  0.1603E+02
  13.440  0.1558E+01  0.1604E+02
  13.450  0.1540E+01  0.1606E+02
  13.460  0.1526E+01  0.1607E+02
  13.470  0.1518E+01  0.1609E+02
  13.480  0.1516E+01  0.1610E+02
  13.490  0.1520E+01  0.1612E+02
  13.500  0.1531E+01  0.1613E+02
  13.510  0.1550E+01  0.1615E+02
  13.520  0.1575E+01  0.1616E+02
  13.530  0.1607E+01  0.1618E+02
  13.540  0.1646E+01  0.1620E+02
  13.550  0.1692E+01  0.1621E+02
  13.560  0.1744E+01  0.1623E+02
  13.570  0.1803E+01  0.1625E+02
  13.580  0.1867E+01  0.1627E+02
  13.590  0.1937E+01  0.1629E+02
  13.600  0.2013E+01  0.1631E+02
  13.610  0.2092E+01  0.1633E+02
  13.620  0.2176E+01  0.1635E+02
  13.630  0.2263E+01  0.1637E+02
  13.640  0.2353E+01  0.1640E+02
  13.650  0.2445E+01  0.1642E+02
  13.660  0.2538E+01  0.1645E+02
  13.670  0.2633E+01  0.1647E+02
  13.680  0.2727E+01  0.1650E+02
  13.690  0.2820E+01  0.1653E+02
  13.700  0.2913E+01  0.1656E+02
  13.710  0.3002E+01  0.1659E+02
  13.720  0.3089E+01  0.1662E+02
  13.730  0.3173E+01  0.1665E+02
  13.740  0.3251E+01  0.1668E+02
  13.750  0.3324E+01  0.1672E+02
  13.760  0.3391E+01  0.1675E+02
  13.770  0.3452E+01  0.1678E+02
  13.780  0.3504E+01  0.1682E+02
  13.790  0.3549E+01  0.1685E+02
  13.800  0.3584E+01  0.1689E+02
  13.810  0.3610E+01  0.1693E+02
  13.820  0.3626E+01  0.1696E+02
  13.830  0.3632E+01  0.1700E+02
  13.840  0.3627E+01  0.1704E+02
  13.850  0.3611E+01  0.1707E+02
  13.860  0.3585E+01  0.1711E+02
  13.870  0.3547E+01  0.1714E+02
  13.880  0.3499E+01  0.1718E+02
  13.890  0.3441E+01  0.1721E+02
  13.900  0.3373E+01  0.1725E+02
  13.910  0.3296E+01  0.1728E+02
  13.920  0.3211E+01  0.1731E+02
  13.930  0.3118E+01  0.1734E+02
  13.940  0.3019E+01  0.1737E+02
  13.950  0.2915E+01  0.1740E+02
  13.960  0.2806E+01  0.1743E+02
  13.970  0.2694E+01  0.1746E+02
  13.980  0.2581E+01  0.1748E+02
  13.990  0.2467E+01  0.1751E+02
  14.000  0.2353E+01  0.1753E+02
  14.010  0.2241E+01  0.1755E+02
  14.020  0.2133E+01  0.1757E+02
  14.030  0.2028E+01  0.1759E+02
  14.040  0.1928E+01  0.1761E+02
  14.050  0.1834E+01  0.1763E+02
  14.060  0.1746E+01  0.1765E+02
  14.070  0.1665E+01  0.1767E+02
  14.080  0.1591E+01  0.1768E+02
  14.090  0.1524E+01  0.1770E+02
  14.100  0.1465E+01  0.1771E+02
  14.110  0.1414E+01  0.1773E+02
  14.120  0.1370E+01  0.1774E+02
  14.130  0.1333E+01  0.1775E+02
  14.140  0.1303E+01  0.1777E+02
  14.150  0.1278E+01  0.1778E+02
  14.160  0.1259E+01  0.1779E+02
  14.170  0.1246E+01  0.1780E+02
  14.180  0.1236E+01  0.1782E+02
  14.190  0.1230E+01  0.1783E+02
  14.200  0.1227E+01  0.1784E+02
  14.210  0.1226E+01  0.1785E+02
  14.220  0.1226E+01  0.1787E+02
  14.230  0.1227E+01  0.1788E+02
  14.240  0.1229E+01  0.1789E+02
  14.250  0.1230E+01  0.1790E+02
  14.260  0.1231E+01  0.1791E+02
  14.270  0.1231E+01  0.1793E+02
  14.280  0.1229E+01  0.1794E+02
  14.290  0.1226E+01  0.1795E+02
  14.300  0.1221E+01  0.1796E+02
  14.310  0.1215E+01  0.1798E+02
  14.320  0.1207E+01  0.1799E+02
  14.330  0.1197E+01  0.1800E+02
  14.340  0.1185E+01  0.1801E+02
  14.350  0.1173E+01  0.1802E+02
  14.360  0.1159E+01  0.1803E+02
  14.370  0.1144E+01  0.1805E+02
  14.380  0.1128E+01  0.1806E+02
  14.390  0.1112E+01  0.1807E+02
  14.400  0.1096E+01  0.1808E+02
  14.410  0.1080E+01  0.1809E+02
  14.420  0.1065E+01  0.1810E+02
  14.430  0.1050E+01  0.1811E+02
  14.440  0.1037E+01  0.1812E+02
  14.450  0.1024E+01  0.1813E+02
  14.460  0.1014E+01  0.1814E+02
  14.470  0.1004E+01  0.1815E+02
  14.480  0.9970E+00  0.1816E+02
  14.490  0.9914E+00  0.1817E+02
  14.500  0.9877E+00  0.1818E+02
  14.510  0.9858E+00  0.1819E+02
  14.520  0.9857E+00  0.1820E+02
  14.530  0.9873E+00  0.1821E+02
  14.540  0.9905E+00  0.1822E+02
  14.550  0.9952E+00  0.1823E+02
  14.560  0.1001E+01  0.1824E+02
  14.570  0.1008E+01  0.1825E+02
  14.580  0.1016E+01  0.1826E+02
  14.590  0.1025E+01  0.1827E+02
  14.600  0.1035E+01  0.1828E+02
  14.610  0.1045E+01  0.1829E+02
  14.620  0.1055E+01  0.1830E+02
  14.630  0.1066E+01  0.1831E+02
  14.640  0.1077E+01  0.1832E+02
  14.650  0.1087E+01  0.1834E+02
  14.660  0.1098E+01  0.1835E+02
  14.670  0.1109E+01  0.1836E+02
  14.680  0.1121E+01  0.1837E+02
  14.690  0.1132E+01  0.1838E+02
  14.700  0.1144E+01  0.1839E+02
  14.710  0.1157E+01  0.1840E+02
  14.720  0.1170E+01  0.1842E+02
  14.730  0.1184E+01  0.1843E+02
  14.740  0.1199E+01  0.1844E+02
  14.750  0.1215E+01  0.1845E+02
  14.760  0.1233E+01  0.1846E+02
  14.770  0.1253E+01  0.1848E+02
  14.780  0.1275E+01  0.1849E+02
  14.790  0.1299E+01  0.1850E+02
  14.800  0.1325E+01  0.1851E+02
  14.810  0.1353E+01  0.1853E+02
  14.820  0.1383E+01  0.1854E+02
  14.830  0.1416E+01  0.1856E+02
  14.840  0.1452E+01  0.1857E+02
  14.850  0.1489E+01  0.1859E+02
  14.860  0.1529E+01  0.1860E+02
  14.870  0.1571E+01  0.1862E+02
  14.880  0.1614E+01  0.1863E+02
  14.890  0.1658E+01  0.1865E+02
  14.900  0.1704E+01  0.1867E+02
  14.910  0.1750E+01  0.1868E+02
  14.920  0.1796E+01  0.1870E+02
  14.930  0.1842E+01  0.1872E+02
  14.940  0.1888E+01  0.1874E+02
  14.950  0.1932E+01  0.1876E+02
  14.960  0.1974E+01  0.1878E+02
  14.970  0.2014E+01  0.1880E+02
  14.980  0.2052E+01  0.1882E+02
  14.990  0.2086E+01  0.1884E+02
  15.000  0.2117E+01  0.1886E+02
  15.010  0.2144E+01  0.1888E+02
  15.020  0.2167E+01  0.1890E+02
  15.030  0.2185E+01  0.1893E+02
  15.040  0.2199E+01  0.1895E+02
  15.050  0.2208E+01  0.1897E+02
  15.060  0.2211E+01  0.1899E+02
  15.070  0.2210E+01  0.1901E+02
  15.080  0.2204E+01  0.1904E+02
  15.090  0.2193E+01  0.1906E+02
  15.100  0.2178E+01  0.1908E+02
  15.110  0.2158E+01  0.1910E+02
  15.120  0.2133E+01  0.1912E+02
  15.130  0.2105E+01  0.1914E+02
  15.140  0.2073E+01  0.1916E+02
  15.150  0.2037E+01  0.1919E+02
  15.160  0.1999E+01  0.1921E+02
  15.170  0.1958E+01  0.1922E+02
  15.180  0.1914E+01  0.1924E+02
  15.190  0.1869E+01  0.1926E+02
  15.200  0.1823E+01  0.1928E+02
  15.210  0.1775E+01  0.1930E+02
  15.220  0.1727E+01  0.1932E+02
  15.230  0.1679E+01  0.1933E+02
  15.240  0.1631E+01  0.1935E+02
  15.250  0.1583E+01  0.1936E+02
  15.260  0.1537E+01  0.1938E+02
  15.270  0.1491E+01  0.1940E+02
  15.280  0.1447E+01  0.1941E+02
  15.290  0.1405E+01  0.1942E+02
  15.300  0.1365E+01  0.1944E+02
  15.310  0.1327E+01  0.1945E+02
  15.320  0.1292E+01  0.1946E+02
  15.330  0.1259E+01  0.1948E+02
  15.340  0.1229E+01  0.1949E+02
  15.350  0.1202E+01  0.1950E+02
  15.360  0.1178E+01  0.1951E+02
  15.370  0.1157E+01  0.1952E+02
  15.380  0.1139E+01  0.1953E+02
  15.390  0.1124E+01  0.1955E+02
  15.400  0.1111E+01  0.1956E+02
  15.410  0.1102E+01  0.1957E+02
  15.420  0.1095E+01  0.1958E+02
  15.430  0.1091E+01  0.1959E+02
  15.440  0.1089E+01  0.1960E+02
  15.450  0.1089E+01  0.1961E+02
  15.460  0.1091E+01  0.1962E+02
  15.470  0.1095E+01  0.1963E+02
  15.480  0.1101E+01  0.1964E+02
  15.490  0.1107E+01  0.1966E+02
  15.500  0.1115E+01  0.1967E+02
  15.510  0.1123E+01  0.1968E+02
  15.520  0.1132E+01  0.1969E+02
  15.530  0.1142E+01  0.1970E+02
  15.540  0.1151E+01  0.1971E+02
  15.550  0.1160E+01  0.1972E+02
  15.560  0.1169E+01  0.1974E+02
  15.570  0.1178E+01  0.1975E+02
  15.580  0.1186E+01  0.1976E+02
  15.590  0.1194E+01  0.1977E+02
  15.600  0.1201E+01  0.1978E+02
  15.610  0.1207E+01  0.1980E+02
  15.620  0.1212E+01  0.1981E+02
  15.630  0.1216E+01  0.1982E+02
  15.640  0.1219E+01  0.1983E+02
  15.650  0.1221E+01  0.1984E+02
  15.660  0.1222E+01  0.1986E+02
  15.670  0.1222E+01  0.1987E+02
  15.680  0.1220E+01  0.1988E+02
  15.690  0.1217E+01  0.1989E+02
  15.700  0.1213E+01  0.1991E+02
  15.710  0.1208E+01  0.1992E+02
  15.720  0.1201E+01  0.1993E+02
  15.730  0.1192E+01  0.1994E+02
  15.740  0.1182E+01  0.1995E+02
  15.750  0.1171E+01  0.1996E+02
  15.760  0.1158E+01  0.1998E+02
  15.770  0.1144E+01  0.1999E+02
  15.780  0.1129E+01  0.2000E+02
  15.790  0.1112E+01  0.2001E+02
  15.800  0.1093E+01  0.2002E+02
  15.810  0.1074E+01  0.2003E+02
  15.820  0.1054E+01  0.2004E+02
  15.830  0.1032E+01  0.2005E+02
  15.840  0.1010E+01  0.2006E+02
  15.850  0.9882E+00  0.2007E+02
  15.860  0.9658E+00  0.2008E+02
  15.870  0.9434E+00  0.2009E+02
  15.880  0.9214E+00  0.2010E+02
  15.890  0.9000E+00  0.2011E+02
  15.900  0.8795E+00  0.2012E+02
  15.910  0.8603E+00  0.2013E+02
  15.920  0.8426E+00  0.2014E+02
  15.930  0.8267E+00  0.2014E+02
  15.940  0.8129E+00  0.2015E+02
  15.950  0.8013E+00  0.2016E+02
  15.960  0.7924E+00  0.2017E+02
  15.970  0.7861E+00  0.2018E+02
  15.980  0.7828E+00  0.2018E+02
  15.990  0.7826E+00  0.2019E+02
  16.000  0.7855E+00  0.2020E+02
